EEG 1,EEG 2,EEG 3,EEG 4,EEG 5,EEG 6,EEG 7,EEG 8,Trigger
2062.8196807212057,-176.31191906681514,1145.6880690242408,-4662.661291763179,-10449.39591880482,-9444.674022424542,-6697.304410477489,-14323.506469533942,0.0
2064.3321166361998,-175.1567514781977,1148.593851412103,-4660.2556850322435,-10450.170000178634,-9445.41237696572,-6689.027694249767,-14307.393668014362,0.0
2063.474672652896,-180.3609600990824,1145.1402575904633,-4665.412257876277,-10456.100654396485,-9450.568949809754,-6694.458172810689,-14290.661601395728,0.0
2062.9983148843935,-179.1343388451897,1145.2117112557387,-4666.734150683871,-10457.38682037144,-9449.116058615822,-6695.660976176157,-14272.619550913712,0.0
2064.4273881899003,-175.2043872550479,1147.7125895403744,-4664.757265944588,-10453.730774498188,-9445.65055584997,-6691.945385581841,-14256.399568896219,0.0
2062.9625880517565,-177.43135982279492,1144.8663518735746,-4666.769877516508,-10453.9332265498,-9448.127616246182,-6693.898452432699,-14250.373643124669,0.0
2060.9618854240475,-177.60999398598315,1145.7357048010908,-4665.769526202655,-10451.634800316777,-9447.13917387654,-6692.409834406131,-14264.223745243864,0.0
2062.224233510578,-176.57391583949124,1146.7241471707327,-4664.042729291835,-10449.765096075407,-9445.055108639343,-6690.575856997398,-14279.062289732703,0.0
2061.8669651842015,-179.52733400420385,1143.985090001846,-4665.567074151041,-10451.086988883,-9446.543726665912,-6692.100201856604,-14299.152678619275,0.0
2059.8186267796427,-179.62260555790428,1143.7230932291698,-4663.840277240221,-10448.514656933088,-9446.75808766174,-6692.671831178807,-14312.70505713316,0.0
2057.8417420403593,-181.7662155161634,1141.0316718371332,-4667.56777677875,-10451.59907348414,-9447.532169035554,-6694.470081754902,-14315.074937031457,0.0
2059.389904787991,-179.96796494006824,1140.9602181718578,-4669.580388350671,-10451.348985655675,-9445.424285909932,-6689.98040978677,-14301.653556903913,0.0
2062.1646887895154,-177.8243549818091,1143.8779095039329,-4665.745708314229,-10448.1454796625,-9441.649150594554,-6688.7537885328775,-14283.43287225871,0.0
2062.9030433306934,-177.8719907586593,1146.0691552390424,-4663.18528530853,-10447.943027610887,-9441.125157049202,-6687.539076223197,-14263.759296419576,0.0
2064.820383348914,-184.07655069339827,1141.7581174340987,-4666.86514907021,-10451.515710874652,-9442.47086774522,-6687.741528274811,-14250.14737318463,0.0
2062.7125002232924,-185.68425816209262,1138.387886221947,-4671.176186875153,-10454.945486807866,-9442.887680792659,-6687.515258334772,-14242.48992205596,0.0
2062.70059127908,-181.61139924140025,1139.6383253642648,-4670.9380079909015,-10454.147587545625,-9442.137417307269,-6684.549931225847,-14254.541773599061,0.0
2066.392363984971,-180.96831625392252,1139.4835090895017,-4669.628024127521,-10451.444257209376,-9440.124805735348,-6682.7516806497515,-14270.13058157329,0.0
2066.7496323113473,-177.30036143645685,1142.8775581900786,-4665.352713155215,-10446.287684365343,-9438.469462489804,-6683.1684936971915,-14290.411513567264,0.0
2062.6053197253796,-178.1816233081856,1143.81836478287,-4665.507529429979,-10448.181206495137,-9444.173846767615,-6689.384962576142,-14308.798923431443,0.0
2060.5212544881833,-180.98022519813506,1142.841831357441,-4666.281610803794,-10448.538474821515,-9447.722712142955,-6693.267278389434,-14314.348491434492,0.0
2061.4382431925496,-179.76551288845488,1144.6519908777489,-4664.340452897148,-10445.835144485265,-9445.209924914107,-6691.75484247444,-14300.045849435217,0.0
2062.4266855621913,-175.43065719508638,1148.2365830857266,-4660.898768019721,-10441.250200963432,-9439.827082130034,-6696.363603884698,-14284.087864190398,0.0
2064.3321166361998,-174.6923026539082,1148.4747619699776,-4661.256036346098,-10441.595560345599,-9439.041091812005,-6695.553795678244,-14259.817435885221,0.0
2064.177300361436,-177.13363621748113,1146.0691552390424,-4664.2570902876605,-10445.370695660975,-9446.6270892754,-6698.030856074454,-14244.764530400556,0.0
2062.9149522749058,-179.4201535062909,1142.1392036489003,-4667.722593053512,-10449.87227657332,-9451.593119012034,-6700.9842742391675,-14240.703580424077,0.0
2064.0939377519485,-179.52733400420385,1142.496471975277,-4666.817513293358,-10448.359840658326,-9448.163343078819,-6699.852924538975,-14255.423035470789,0.0
2064.629840241513,-182.99283677005616,1141.1031255024084,-4666.662697018596,-10448.097843885651,-9447.436897481854,-6700.293555474839,-14271.774015874622,0.0
2060.7713423166465,-182.9094741605683,1140.769675064457,-4667.627321499813,-10448.490839044665,-9445.257560690958,-6693.898452432699,-14292.805211353987,0.0
2060.0806235523187,-181.9329407351391,1140.1146831327667,-4668.413311817841,-10447.728666615061,-9444.828838699304,-6692.147837633454,-14307.06021757641,0.0
2060.556981320821,-180.73013736967147,1140.5672230128437,-4668.913487474767,-10448.062117053012,-9443.804669497025,-6691.326120482789,-14309.39437064207,0.0
2061.807420463139,-183.69546447859665,1137.3160812428173,-4671.747816197355,-10450.348634341823,-9442.649501908409,-6689.289691022443,-14298.569140352862,0.0
2061.4144253041245,-186.0057996558315,1136.875450306953,-4672.962528507035,-10450.360543286035,-9441.911147367231,-6688.849060086578,-14282.59924616383,0.0
2061.1286106430234,-184.80299629036386,1138.4236130545846,-4673.2007073912855,-10453.218689897049,-9445.543375352057,-6689.32541785508,-14261.54423279604,0.0
2062.783953888568,-183.26674248694482,1137.7448032344691,-4674.689325417855,-10457.410638259866,-9448.627791903109,-6688.086887656974,-14245.824426435474,0.0
2064.4631150225377,-182.5164790015541,1137.8877105650197,-4671.11664215409,-10451.563346651503,-9443.7808516086,-6687.801072995873,-14246.538963088227,0.0
2064.344025580412,-183.77882708808448,1136.5658177574267,-4670.69982910665,-10448.038299164587,-9443.8761231623,-6689.3968715203555,-14259.62689277782,0.0
2062.9625880517565,-182.12348384253994,1139.340601758951,-4667.627321499813,-10444.060711797594,-9443.983303660214,-6699.066934220947,-14277.406946487159,0.0
2064.344025580412,-180.8730447002221,1140.1742278538297,-4668.306131319928,-10446.192412811642,-9447.103447043903,-6699.340839937835,-14294.889276591184,0.0
2064.320207691987,-177.09790938484346,1146.0572462948296,-4665.32889526679,-10446.001869704241,-9446.138822562687,-6694.803532192853,-14308.73937871038,0.0
2063.26031165707,-183.1238351563942,1141.781935322524,-4668.5204923157535,-10449.646006633282,-9448.25861463252,-6702.103714995147,-14317.182820157079,0.0
2061.3786984714866,-181.909122846714,1141.4723027729976,-4669.306482633781,-10448.788562649977,-9446.555635610124,-6695.791974562495,-14305.416783275077,0.0
2058.806366521576,-181.39703824557432,1140.245681519105,-4669.5446615180335,-10447.931118666675,-9447.698894254529,-6698.209490237643,-14287.624820621528,0.0
2058.0203762035476,-182.87374732793063,1138.626065106198,-4671.045188488814,-10450.8964457756,-9449.747232659089,-6701.127181569718,-14270.97611661238,0.0
2061.5454236904625,-181.48040085506221,1140.8411287297324,-4669.330300522207,-10449.074377311079,-9446.412728279573,-6695.613340399306,-14252.94597507458,0.0
2062.7601360001427,-179.4201535062909,1142.3773825331514,-4667.6154125555995,-10445.930416038966,-9442.69713768526,-6692.517014904043,-14247.694130676844,0.0
2061.2596090293614,-178.07444281027264,1142.6512882500401,-4668.020316658826,-10446.871222631757,-9442.447049856795,-6692.683740123019,-14264.402379407053,0.0
2061.62878629995,-177.57426715334552,1142.7584687479532,-4667.7106841093,-10446.41868275168,-9441.970692088293,-6691.671479864952,-14279.014653955852,0.0
2061.771693630501,-179.99178282849334,1140.3766799054429,-4670.807009604564,-10448.574201654152,-9443.721306887539,-6692.5646506808935,-14298.176145193847,0.0
2059.997260942831,-181.82576023722615,1138.8404261020237,-4672.760076455422,-10451.420439320953,-9445.936370511072,-6694.470081754902,-14311.978611536195,0.0
2061.4263342483373,-178.68179896511273,1141.48421171721,-4670.592648608737,-10448.216933327776,-9441.399062766091,-6688.9443316402785,-14313.96740521969,0.0
2063.82003203506,-178.0625338660601,1142.1392036489003,-4669.770931458072,-10448.228842271988,-9441.946874199866,-6686.300546025092,-14298.068964695934,0.0
2064.2130271940737,-177.35990615751962,1142.341655700514,-4669.568479406458,-10449.39591880482,-9441.637241650342,-6684.14502712262,-14279.443375947505,0.0
2064.2249361382865,-176.03801334992647,1143.4968232891313,-4666.305428692219,-10445.656510322078,-9437.56438272965,-6679.679173042913,-14261.984863731906,0.0
2066.5590892039468,-176.52628006264104,1142.7703776921658,-4665.995796142693,-10444.191710183934,-9438.064558386575,-6682.096688718061,-14249.1708397592,0.0
2068.6788812737805,-179.5630608368415,1140.1742278538297,-4669.246937912719,-10445.85896237369,-9443.018679178997,-6688.2655218201635,-14242.275561060134,0.0
2068.6907902179933,-178.36025747137387,1141.6152101035482,-4667.996498770402,-10443.917804467046,-9440.124805735348,-6689.504052018268,-14255.399217582366,0.0
2064.189209305649,-182.4688432247039,1137.673349569194,-4672.42662601747,-10447.704848726637,-9442.161235195694,-6693.803180878999,-14281.634621682615,0.0
2062.9983148843935,-186.45833953590844,1133.564763815864,-4676.142216611786,-10451.1822604367,-9444.150028879189,-6690.206679726808,-14301.522558517574,0.0
2062.248051399003,-185.05308411882743,1134.5889330181433,-4676.0707629465105,-10452.277883304256,-9447.103447043903,-6693.707909325299,-14314.586670318742,0.0
2061.2477000851486,-183.13574410060676,1138.9237887115116,-4673.236434223924,-10451.432348265165,-9447.424988537641,-6690.552039108973,-14321.839217344186,0.0
2060.2711666597197,-183.26674248694482,1139.1619675957627,-4672.7481675112085,-10450.277180676547,-9445.591011128909,-6688.646608034965,-14306.893492357436,0.0
2059.4732673974786,-184.12418647024847,1138.2926146682466,-4673.010164283885,-10448.991014701593,-9447.413079593429,-6691.742933530228,-14291.912040538045,0.0
2061.974145682115,-182.05203017726464,1139.316783870526,-4671.080915321451,-10447.311853567622,-9447.639349533467,-6697.221047868001,-14272.23846469891,0.0
2064.653658129939,-180.13469015904394,1141.2460328329591,-4667.925045105126,-10443.75107924807,-9443.626035333837,-6694.053268707463,-14255.184856586538,0.0
2063.6175799834464,-179.59878766947915,1139.8884131927284,-4669.520843629608,-10444.191710183934,-9444.340571986591,-6692.933827951482,-14249.551925974001,0.0
2061.3072448062117,-180.61104792754597,1139.1857854841878,-4672.247991854282,-10446.859313687544,-9445.65055584997,-6695.315616793993,-14261.329871800215,0.0
2061.616877355738,-180.48004954120793,1138.709427715686,-4672.33135446377,-10446.906949464395,-9446.543726665912,-6696.625600657373,-14282.206251004816,0.0
2060.2830756039325,-181.87339601407635,1136.8397234743154,-4673.438886275537,-10449.646006633282,-9449.52096271905,-6697.399682031189,-14303.070721265207,0.0
2062.3075961200657,-179.31297300837792,1139.447782256864,-4669.961474565473,-10445.442149326253,-9445.090835471981,-6694.0889955401,-14313.002780738474,0.0
2062.1527798453026,-179.02715834727672,1139.816959527453,-4671.021370600389,-10445.34687777255,-9442.61377507577,-6692.100201856604,-14317.456725873968,0.0
2057.817924151934,-181.8376691814387,1136.875450306953,-4675.165683186357,-10450.765447389262,-9445.579102184696,-6694.065177651675,-14309.501551139983,0.0
2058.246646143586,-181.6233081856128,1138.4950667198598,-4673.712791992426,-10449.31255619533,-9444.852656587731,-6693.684091436874,-14293.698382169929,0.0
2059.747173114368,-181.51612768769985,1139.0428781536373,-4671.21191370779,-10446.680679524357,-9443.185404397973,-6688.325066541226,-14272.631459857925,0.0
2060.580799209246,-181.77812446037595,1137.0421755259285,-4673.022073228098,-10449.372100916393,-9450.59276769818,-6701.174817346568,-14260.019887936834,0.0
2061.8907830726266,-181.56376346455005,1136.6253624784893,-4674.177240816715,-10451.194169380913,-9451.795571063647,-6705.223858378836,-14254.327412603236,0.0
2061.3072448062117,-179.87269338636784,1139.3525107031635,-4672.474261794321,-10449.848458684895,-9447.84180158508,-6691.862022972353,-14263.425845981625,0.0
2061.342971638849,-181.5994902971877,1138.9833334325745,-4672.009812970031,-10446.513954305381,-9445.198015969894,-6692.540832792469,-14282.575428275406,0.0
2059.306542178503,-181.36131141293666,1138.6737008830482,-4671.688271476292,-10447.371398288684,-9447.948982082993,-6702.67534431735,-14303.034994432568,0.0
2057.4606558255578,-179.78933077687998,1139.5311448663517,-4672.128902412156,-10449.479281414306,-9452.46247193955,-6704.938043717734,-14315.849018405272,0.0
2056.21021668324,-181.80194234880105,1137.697167457619,-4673.176889502862,-10449.63409768907,-9447.98470891563,-6697.0185958163875,-14322.256030391625,0.0
2057.3653842718572,-183.32628720800759,1136.7801787532526,-4675.106138465294,-10450.9917173293,-9444.161937823403,-6691.385665203851,-14309.930273131635,0.0
2059.901989389131,-181.92103179092655,1138.1020715608458,-4674.820323804193,-10451.289440934614,-9446.38891039115,-6690.706855383735,-14291.23323071793,0.0
2059.9377162217684,-181.38512930136176,1138.2926146682466,-4675.165683186357,-10451.22989621355,-9447.270172262879,-6693.041008449396,-14274.131986828708,0.0
2060.021078831256,-181.9567586235642,1134.7318403486938,-4676.3327597191865,-10450.348634341823,-9447.270172262879,-6694.565353308602,-14261.48468807498,0.0
2063.3317653223453,-181.92103179092655,1134.4817525202302,-4676.832935376114,-10448.621837431003,-9443.92375893915,-6688.849060086578,-14254.101142663198,0.0
2064.7251117952137,-180.30141537801967,1138.0544357839956,-4674.308239203054,-10447.8596650014,-9441.994509976717,-6687.336624171584,-14265.367003888268,0.0
2062.676773390655,-182.38548061521604,1139.1024228747,-4673.8080635461265,-10448.812380538402,-9443.840396329664,-6690.4924943879105,-14284.3736788515,0.0
2059.1874527363775,-183.35010509643269,1137.4113527965178,-4677.702288303631,-10451.849161312603,-9445.340923300444,-6689.813684567795,-14303.225537539969,0.0
2059.1874527363775,-180.98022519813506,1139.9360489695787,-4673.760427769275,-10447.44285195396,-9444.554932982415,-6686.538724909343,-14315.456023246257,0.0
2059.389904787991,-179.09861201255202,1141.9605694857123,-4671.604908866804,-10446.120959146367,-9445.007472862493,-6687.670074609536,-14322.613298718,0.0
2061.354880583062,-177.63381187440825,1142.8061045248035,-4670.152017672873,-10444.22743701657,-9442.768591350534,-6688.5989722581135,-14311.978611536195,0.0
2062.2004156221533,-178.77707051881313,1141.2817596655968,-4671.354821038341,-10445.275424107276,-9442.625684019982,-6691.052214765899,-14290.697328228367,0.0
2061.7121489094384,-182.31402694994074,1137.8758016208074,-4673.6532472713625,-10448.324113825689,-9445.41237696572,-6696.661327490011,-14269.463680697387,0.0
2063.5103994855335,-183.2429245985197,1137.0183576375036,-4674.4868733662415,-10448.443203267814,-9445.674373738395,-6698.173763405005,-14254.339321547448,0.0
2066.8091770324104,-179.84887549794271,1139.4835090895017,-4672.9029837859725,-10447.597668228724,-9445.340923300444,-6692.016839247117,-14243.537909146664,0.0
2066.24945665442,-178.9557046820014,1141.007853948708,-4672.057448746881,-10444.97770050196,-9442.256506749394,-6688.444155983351,-14257.840551145937,0.0
2065.3086500616287,-177.9196265355095,1141.138852335046,-4668.627672813666,-10438.475416961908,-9437.350021733824,-6689.551687795118,-14281.455987519426,0.0
2064.344025580412,-178.28880380609857,1139.7931416390281,-4672.37899024062,-10444.036893909171,-9438.814821871967,-6685.085833715412,-14304.309251463312,0.0
2064.93947279104,-176.95500205429286,1141.091216558196,-4671.104733209877,-10444.453706956609,-9440.553527727,-6683.513853079355,-14312.407333527844,0.0
2063.343674266558,-176.76445894689206,1141.567574326698,-4670.6760112182255,-10442.464913273114,-9439.314997528894,-6684.1093002899825,-14315.527476911535,0.0
2064.0105751424608,-176.95500205429286,1140.984036060283,-4671.545364145742,-10441.178747298158,-9436.421124085244,-6683.001768478215,-14304.154435188548,0.0
2066.1541851007196,-176.83591261216736,1141.627119047761,-4670.735555939288,-10441.250200963432,-9436.07576470308,-6680.048350313503,-14285.790843212795,0.0
2064.2130271940737,-178.19353225239814,1140.614858789694,-4670.461650222399,-10441.631287178234,-9436.695029802133,-6683.108948976129,-14273.119726570641,0.0
2064.963290679465,-171.2387088322685,1145.199802311526,-4666.317337636431,-10440.24984964958,-9436.480668806305,-6683.609124633056,-14255.887484295079,0.0
2065.213378507928,-169.96445180152554,1145.4498901399897,-4666.305428692219,-10438.975592618835,-9437.183296514848,-6685.359739432301,-14248.837389321248,0.0
2064.9871085678897,-171.9056097081713,1143.9493631692083,-4667.66304833245,-10438.213420189233,-9435.111140221863,-6681.4297878421585,-14260.23424893266,0.0
2065.534920001667,-170.5837169005782,1147.4148659350606,-4664.72153911195,-10435.057549972908,-9432.800805044628,-6677.499836252017,-14279.109925509554,0.0
2063.3555832107704,-172.417694309311,1143.103828130117,-4670.902281158264,-10442.31009699835,-9437.659654283349,-6682.656409096052,-14304.44024984965,0.0
2061.2953358619993,-175.56165558142442,1137.7448032344691,-4675.106138465294,-10445.192061497788,-9441.029885495502,-6684.895290608011,-14318.34989668991,0.0
2060.8904317587726,-174.32312538331914,1140.2575904633172,-4672.9744374512475,-10443.024633651105,-9440.851251332313,-6683.5853067446305,-14323.792284195044,0.0
2061.509696857825,-181.68285290667555,1137.673349569194,-4673.629429382938,-10444.001167076533,-9442.149326251481,-6688.7895153655145,-14315.825200516847,0.0
2063.21267588022,-183.50492137119582,1138.6141561619854,-4673.712791992426,-10446.45440958432,-9444.161937823403,-6687.098445287333,-14298.866863958176,0.0
2064.2130271940737,-183.20719776588206,1137.9234373976574,-4674.403510756753,-10445.632692433652,-9447.23444543024,-6691.719115641802,-14277.716579036683,0.0
2063.986757254035,-183.95746125127278,1136.9945397490785,-4674.367783924116,-10445.180152553576,-9448.842152898933,-6697.792677190203,-14261.663322238166,0.0
2062.8792254422683,-183.9455523070602,1136.661089311127,-4674.951322190532,-10446.442500640105,-9450.580858753967,-6703.354154137465,-14254.458410989573,0.0
2063.391310043408,-182.64747738789217,1137.065993414354,-4675.356226293758,-10447.085583627584,-9449.544780607475,-6695.25607207293,-14266.99852924539,0.0
2062.4266855621913,-180.86113575600956,1138.8166082135988,-4672.664804901721,-10444.382253291335,-9444.019030492851,-6683.001768478215,-14286.243383092873,0.0
2060.104441440744,-183.1238351563942,1137.0421755259285,-4674.2606034262035,-10445.132516776725,-9444.376298819227,-6687.955889270637,-14307.643755842826,0.0
2059.71144628173,-182.0639391214772,1138.0663447282082,-4673.831881434551,-10444.429889068184,-9441.911147367231,-6687.193716841033,-14318.385623522545,0.0
2061.616877355738,-180.3609600990824,1138.9833334325745,-4673.450795219749,-10444.620432175585,-9443.030588123209,-6686.324363913517,-14322.541845052727,0.0
2062.6648644464426,-181.670943962463,1136.029915267862,-4675.3919531263955,-10446.41868275168,-9446.662816108037,-6688.456064927564,-14313.87213366599,0.0
2061.8550562399887,-180.2418706569569,1136.530090924789,-4676.046945058086,-10446.299593309555,-9444.495388261352,-6687.062718454696,-14297.11624915893,0.0
2063.26031165707,-180.01560071691844,1140.6505856223316,-4673.367432610262,-10445.465967214675,-9443.352129616947,-6687.134172119971,-14277.716579036683,0.0
2063.2960384897074,-184.25518485658654,1137.6614406249812,-4675.022775855807,-10446.895040520181,-9444.578750870842,-6690.254315503658,-14265.295550222994,0.0
2060.2830756039325,-182.4212074478537,1133.8863053096027,-4680.762886966257,-10450.658266891349,-9446.567544554337,-6691.230848929088,-14263.628298033238,0.0
2060.5927081534587,-178.7413436861755,1136.7325429764026,-4677.011569539302,-10447.526214563448,-9444.364389875016,-6688.170250266462,-14275.144247086775,0.0
2061.319153750424,-180.86113575600956,1136.661089311127,-4677.345019977253,-10449.324465139543,-9448.330068297793,-6688.587063313902,-14292.650395079223,0.0
2062.283778231641,-182.6355684436796,1137.8758016208074,-4675.5824962337965,-10446.347229086405,-9442.709046629472,-6687.157990008395,-14307.643755842826,0.0
2065.654009443793,-178.5984363556249,1142.3178378120888,-4671.974086137393,-10442.012373393036,-9436.73075663477,-6683.668669354119,-14317.206638045503,0.0
2068.7860617716938,-170.6789884542786,1149.5703848375322,-4666.293519748007,-10436.1888996731,-9430.597650365307,-6677.523654140442,-14318.385623522545,0.0
2069.1433300980702,-171.20298199963082,1148.0222220899007,-4668.091770324101,-10437.939514472344,-9429.847386879916,-6676.892480097176,-14308.727469766167,0.0
2065.3205590058415,-178.24116802924834,1140.4243156822931,-4675.403862070609,-10445.418331437826,-9437.052298128508,-6681.084428459994,-14298.402415133885,0.0
2060.3545292692074,-184.99353939776466,1133.481401206376,-4679.833989317677,-10451.479984042015,-9442.399414079944,-6685.645554093402,-14285.30257650008,0.0
2058.270464032011,-189.72139025014735,1129.0036381824568,-4684.597567002697,-10457.196277264038,-9451.009580745618,-6693.01719056097,-14278.847928736877,0.0
2059.997260942831,-187.49441768240035,1131.599788020793,-4682.0371439969995,-10454.552491648852,-9452.950738652264,-6694.481990699114,-14270.714119839704,0.0
2062.7601360001427,-184.33854746607437,1134.041121584366,-4678.666912784846,-10450.062819680721,-9450.330770925504,-6693.707909325299,-14278.657385629476,0.0
2065.4515573921794,-183.23101565430716,1135.3749233361716,-4677.04729637194,-10447.919209722462,-9450.283135148653,-6697.197229979576,-14295.353725415473,0.0
2062.8434986096304,-183.076199379544,1136.3276388731756,-4675.570587289583,-10444.072620741807,-9447.960891027205,-6701.305815732906,-14317.682995814006,0.0
2061.664513132588,-181.42085613399942,1135.922734769949,-4676.844844320327,-10446.918858408608,-9449.651961105388,-6702.627708540499,-14329.639575803407,0.0
2061.473970025187,-181.6947618508881,1134.8509297908195,-4679.155179497562,-10450.289089620761,-9449.675778993813,-6698.221399181855,-14334.224519325238,0.0
2062.379049785341,-181.7185797393132,1133.4456743737383,-4677.106841093003,-10445.120607832512,-9445.257560690958,-6695.994426614108,-14321.874944176823,0.0
2061.9146009610517,-179.77742183266741,1133.2313133779126,-4676.511393882375,-10444.906246836686,-9446.507999833275,-6695.76815667407,-14300.391208817382,0.0
2061.6049684115255,-177.77671920495888,1134.910474511882,-4677.702288303631,-10448.19311543935,-9446.281729893235,-6690.54013016476,-14280.622361424548,0.0
2063.30794743392,-178.5269826903496,1139.4239643684389,-4674.415419700967,-10445.477876158888,-9441.279973323964,-6686.38390863458,-14262.616037775171,0.0
2065.118106954228,-180.44432270857027,1142.1034768162629,-4668.5204923157535,-10435.486271964559,-9435.837585818828,-6685.550282539701,-14257.75718853645,0.0
2064.879928069977,-178.5031648019245,1144.6638998219612,-4666.0315229753305,-10433.747566109525,-9437.921651056025,-6693.350640998922,-14274.858432425674,0.0
2063.1174043265196,-178.36025747137387,1142.7108329711027,-4672.438534961682,-10443.489082475393,-9445.352832244658,-6695.3989794034815,-14295.15127336386,0.0
2062.855407553843,-179.09861201255202,1138.8166082135988,-4679.929260871378,-10455.195574636331,-9451.259668574081,-6696.899506374262,-14314.050767829178,0.0
2063.105495382307,-178.3721664155864,1138.709427715686,-4677.535563084654,-10447.788211336123,-9443.197313342185,-6685.609827260763,-14327.353058514596,0.0
2058.854002298426,-180.12278121483138,1135.6726469414853,-4676.511393882375,-10443.679625582792,-9442.32796041467,-6687.3961688926465,-14331.402099546864,0.0
2059.0088185731893,-182.1830285636027,1133.7672158674773,-4677.833286689968,-10446.549681138018,-9448.187160967245,-6693.2077336683715,-14318.86198129105,0.0
2059.7948088912176,-183.0523814911189,1133.7791248116898,-4678.2620086816205,-10448.955287868954,-9452.117112557387,-6705.271494155686,-14301.332015410173,0.0
2060.997612256685,-181.9329407351391,1137.3875349080927,-4674.212967649352,-10444.191710183934,-9446.86526815965,-6699.233659439922,-14282.075252618479,0.0
2063.0102238286063,-178.94379573778886,1139.8407774158782,-4674.165331872503,-10444.822884227198,-9445.745827403673,-6690.135226061533,-14266.760350361137,0.0
2063.0935864380945,-179.0152494030642,1139.2810570378883,-4676.880571152964,-10446.775951078056,-9445.50764851942,-6691.993021358691,-14261.699049070803,0.0
2061.116701698811,-182.17111961939014,1135.2677428382588,-4681.370243121096,-10451.83725236839,-9449.485235886412,-6693.136280003096,-14273.524630673866,0.0
2060.378347157633,-180.00369177270588,1138.1854341703338,-4678.976545334373,-10449.669824521707,-9447.413079593429,-6692.064475023966,-14290.744964005215,0.0
2061.8788741284143,-179.3725177294407,1138.3759772777346,-4677.1663858140655,-10446.847404743334,-9444.173846767615,-6689.575505683543,-14313.848315777564,0.0
2061.652604188376,-180.93258942128486,1137.0540844701413,-4678.35728023532,-10447.228490958134,-9444.185755711827,-6689.218237357167,-14328.008050446288,0.0
2060.235439827082,-180.265688545382,1136.8159055858903,-4678.86936483646,-10445.525511935739,-9442.435140912583,-6689.003876361341,-14331.580733710052,0.0
2060.6165260418834,-181.25413091502372,1136.0418242120745,-4678.16673712792,-10443.536718252242,-9443.113950732697,-6689.46832518563,-14322.125032005288,0.0
2059.699537337517,-181.13504147289822,1134.7913850697566,-4678.571641231147,-10444.572796398734,-9446.567544554337,-6692.255018131367,-14305.166695446615,0.0
2060.104441440744,-178.7175257977504,1136.8039966416777,-4676.058854002298,-10444.275072793422,-9445.424285909932,-6692.243109187155,-14284.540404070476,0.0
2061.4382431925496,-176.88354838901756,1139.292965982101,-4674.85605063683,-10443.417628810117,-9443.54267272435,-6690.456767555272,-14269.142139203648,0.0
2061.950327793689,-177.8243549818091,1139.4239643684389,-4676.142216611786,-10444.810975282986,-9444.352480930804,-6690.849762714286,-14264.402379407053,0.0
2060.378347157633,-178.62225424405,1138.626065106198,-4677.738015136268,-10446.347229086405,-9445.150380193043,-6690.706855383735,-14280.562816703485,0.0
2061.593059467313,-179.78933077687998,1137.697167457619,-4678.095283462644,-10445.94232498318,-9446.01973312056,-6690.4924943879105,-14297.592606927434,0.0
2059.9377162217684,-181.51612768769985,1136.875450306953,-4677.964285076306,-10445.954233927392,-9444.459661428717,-6691.480936757552,-14315.301206971497,0.0
2060.36643821342,-178.09826069869774,1139.4596912010766,-4676.451849161313,-10444.167892295509,-9442.649501908409,-6690.909307435349,-14328.853585485378,0.0
2058.854002298426,-180.52768531805813,1137.851983732382,-4677.571289917292,-10445.382604605189,-9445.305196467807,-6692.96955478412,-14333.986340440988,0.0
2057.7702883750844,-180.21805276853178,1137.697167457619,-4675.78494828541,-10442.881726320553,-9442.875771848447,-6690.218588671021,-14323.375471147605,0.0
2059.3779958437785,-177.75290131653375,1139.1857854841878,-4674.57023597573,-10441.333563572922,-9440.898887109164,-6686.80072168202,-14304.380705128586,0.0
2061.069065921961,-179.0152494030642,1137.3279901870299,-4676.0707629465105,-10443.084178372166,-9441.530061152429,-6688.0749787127625,-14283.218511262883,0.0
2063.2007669360073,-181.61139924140025,1133.8267605885399,-4678.762184338548,-10445.513602991527,-9442.673319796833,-6690.659219606885,-14272.405189917887,0.0
2065.165742731078,-180.14659910325648,1134.4579346318053,-4678.512096510084,-10444.882428948262,-9442.256506749394,-6691.957294526054,-14268.832506654122,0.0
2062.2004156221533,-180.39668693172007,1135.625011164635,-4677.1663858140655,-10443.98925813232,-9440.482074061723,-6691.230848929088,-14281.039174471985,0.0
2059.9258072775556,-179.52733400420385,1136.4943640921515,-4676.880571152964,-10444.822884227198,-9441.577696929278,-6689.384962576142,-14300.546025092144,0.0
2061.0452480335357,-177.43135982279492,1139.7097790295402,-4675.6182230664335,-10444.465615900821,-9443.935667883363,-6689.635050404606,-14321.362859575684,0.0
2058.830184410001,-179.65833239054191,1138.7570634925362,-4675.5824962337965,-10442.322005942562,-9442.447049856795,-6692.21929129873,-14336.177586176098,0.0
2058.270464032011,-179.205792510465,1138.3640683335218,-4675.713494620135,-10442.40536855205,-9441.970692088293,-6692.624195401956,-14343.918399914255,0.0
2060.6522528745213,-179.4201535062909,1137.7090764018315,-4676.511393882375,-10444.251254904997,-9442.768591350534,-6692.147837633454,-14326.53134136393,0.0
2061.473970025187,-180.74204631388403,1135.2915607266837,-4676.963933762452,-10444.775248450349,-9441.684877427193,-6692.255018131367,-14306.798220803734,0.0
2061.140519587236,-179.99178282849334,1133.8386695327524,-4678.095283462644,-10445.62078348944,-9440.779797667039,-6689.98040978677,-14287.053191299325,0.0
2062.545775004317,-178.09826069869774,1135.148653396133,-4677.940467187881,-10444.989609446175,-9439.517449580508,-6689.861320344645,-14276.799590332319,0.0
2065.2371963963533,-177.45517771122002,1135.5654664435724,-4677.249748423554,-10443.596262973306,-9439.338815417319,-6689.992318730983,-14270.714119839704,0.0
2065.2371963963533,-177.88389970287184,1134.6842045718436,-4679.1670884417745,-10447.990663387738,-9442.00641892093,-6687.574803055835,-14278.514478298926,0.0
2063.6533068160843,-179.88460233058038,1132.5882303904348,-4681.096337404207,-10448.074025997224,-9442.828136071597,-6689.456416241418,-14298.688229794987,0.0
2063.629488927659,-177.32417932488195,1135.9108258257363,-4677.869013522606,-10444.477524845035,-9441.387153821877,-6686.1100029176905,-14317.46863481818,0.0
2062.1408709010902,-179.40824456207835,1136.4110014826636,-4676.892480097176,-10440.583300087532,-9438.814821871967,-6689.551687795118,-14333.15271434611,0.0
2060.8547049261347,-177.40754193436982,1136.5658177574267,-4678.857455892247,-10442.798363711065,-9440.827433443887,-6700.400735972752,-14338.011563584829,0.0
2062.128961956878,-177.35990615751962,1135.9108258257363,-4680.000714536653,-10445.454058270463,-9444.459661428717,-6701.460632007669,-14324.721181843624,0.0
2065.1300158984404,-180.99213414234762,1135.4225591130219,-4678.309644458471,-10441.952828671974,-9438.350373047677,-6687.932071382212,-14309.07282914833,0.0
2063.6413978718715,-180.25377960116947,1134.7318403486938,-4680.107895034565,-10445.870871317902,-9442.232688860968,-6690.516312276334,-14290.983142889467,0.0
2063.8557588676977,-178.5269826903496,1135.7441006067606,-4680.417527584092,-10445.239697274637,-9437.540564841223,-6685.324012599663,-14276.347050452241,0.0
2064.8322922931266,-178.44362008086173,1138.304523612459,-4679.226633162837,-10444.668067952436,-9437.088024961147,-6685.2644678786,-14270.892754002893,0.0
2065.963641993319,-177.13363621748113,1139.5430538105643,-4677.916649299456,-10442.584002715239,-9437.254750180122,-6684.121209234196,-14281.074901304624,0.0
2064.498841855175,-176.93118416586776,1137.4113527965178,-4679.691081987126,-10446.633043747506,-9445.900643678433,-6688.57515436969,-14301.022382860649,0.0
2064.5345686878127,-176.50246217421594,1137.3994438523052,-4678.631185952209,-10444.751430561922,-9444.781202922453,-6687.4676225579215,-14323.470742701305,0.0
2062.974496995969,-178.14589647554794,1134.4936614644428,-4681.5846041169225,-10445.513602991527,-9447.031993378627,-6693.6602735484485,-14332.807354963945,0.0
2061.2119732525116,-177.88389970287184,1135.6369201088478,-4682.311049713887,-10445.525511935739,-9451.545483235182,-6706.641022740128,-14336.784942330938,0.0
2062.974496995969,-183.11192621218166,1133.7791248116898,-4682.632591207626,-10447.002221018094,-9449.794868435938,-6697.8522219112665,-14325.852531543816,0.0
2062.736318111718,-179.5392429484164,1135.922734769949,-4679.095634776499,-10444.608523231373,-9445.602920073121,-6692.850465341995,-14306.857765524797,0.0
2063.6533068160843,-176.35955484366534,1138.340250445097,-4676.9758427066645,-10442.048100225675,-9441.661059538766,-6690.849762714286,-14286.410108311848,0.0
2066.511453427096,-178.4078932482241,1136.5777267016392,-4679.3576315491755,-10444.453706956609,-9443.518854835924,-6690.3019512805095,-14275.572969078425,0.0
2065.534920001667,-177.83626392602164,1136.661089311127,-4680.250802365116,-10444.894337892474,-9443.602217445414,-6689.968500842558,-14268.606236714084,0.0
2062.1408709010902,-181.15885936132332,1134.219755747554,-4681.834691945386,-10445.168243609363,-9444.412025651865,-6692.826647453569,-14279.83637110652,0.0
2061.2834269177865,-181.96866756777678,1133.933941086453,-4683.63294252148,-10446.573499026445,-9444.793111866667,-6692.255018131367,-14297.699787425347,0.0
2061.354880583062,-179.63451450211682,1136.3871835942384,-4681.489332563221,-10444.799066338774,-9442.018327865142,-6685.645554093402,-14316.623099779088,0.0
2060.497436599758,-179.71787711160468,1135.5059217225098,-4681.52505939586,-10444.822884227198,-9440.827433443887,-6682.596864374989,-14333.569527393549,0.0
2061.6049684115255,-178.65798107668763,1136.4467283153012,-4679.405267326025,-10443.131814149017,-9439.136363365706,-6684.085482401557,-14337.690022091092,0.0
2062.224233510578,-178.28880380609857,1137.8162568997445,-4677.666561470993,-10442.667365324727,-9438.100285219214,-6683.513853079355,-14328.25813827475,0.0
2060.235439827082,-178.72943474196293,1138.0068000071453,-4679.095634776499,-10443.310448312204,-9438.481371434016,-6683.918757182582,-14312.24060830887,0.0
2062.8434986096304,-176.38337273209044,1138.6856098272608,-4679.309995772324,-10444.310799626059,-9439.195908086767,-6685.740825647102,-14288.196449943729,0.0
2063.9033946445475,-173.23941145997702,1141.222214944534,-4676.416122328675,-10440.85720580442,-9437.46911117595,-6686.657814351469,-14272.774367188476,0.0
2064.5702955204506,-171.66743082392028,1142.9609207995666,-4675.237136851632,-10440.106942319027,-9438.660005597203,-6686.205274471392,-14267.998880559244,0.0
2062.7601360001427,-171.79842921025838,1143.1157370743297,-4674.546418087304,-10438.95177473041,-9438.481371434016,-6684.51420439321,-14282.134797339542,0.0
2060.0687146081063,-169.15464359507206,1144.93780553885,-4673.272161056561,-10436.903436325852,-9436.373488308393,-6684.51420439321,-14298.843046069751,0.0
2059.901989389131,-169.71436397306195,1144.6758087661738,-4675.225227907419,-10438.213420189233,-9437.111842849572,-6687.455713613709,-14322.101214116861,0.0
2061.616877355738,-166.20122543035944,1149.3798417301314,-4670.580739664525,-10434.366831208577,-9434.170333629072,-6684.764292221673,-14333.331348509297,0.0
2058.913547019489,-165.35569039126835,1149.8561994986335,-4670.235380282361,-10435.117094693971,-9436.016219982017,-6687.08653634312,-14340.833983363204,0.0
2058.8182754657887,-164.4744285195396,1148.355672527852,-4668.9373053631925,-10433.568931946338,-9433.991699465883,-6683.049404255066,-14330.080206739272,0.0
2059.366086899566,-163.65271136887358,1149.1892986227306,-4667.079510066034,-10432.675761130396,-9432.848440821479,-6682.846952203452,-14312.967053905835,0.0
2062.9625880517565,-157.81732870472368,1154.8817739563297,-4663.55446257912,-10430.043884459423,-9429.335302278776,-6682.894587980302,-14286.648287196098,0.0
2068.6788812737805,-155.1020894242621,1159.7763500276883,-4659.100517443626,-10425.649484044992,-9427.108329711029,-6678.238190793195,-14269.04686764995,0.0
2073.835454117815,-156.31680173394227,1160.7052476762672,-4656.075645613638,-10422.13634550229,-9423.41655700514,-6673.438886275537,-14258.721813017668,0.0
2071.155941669991,-160.8898363115618,1156.3227562060486,-4658.767067005675,-10422.850882155042,-9420.844225055227,-6671.723998308929,-14274.33443888032,0.0
2061.188155364086,-170.13117702050124,1146.4264235654186,-4668.103679268314,-10430.25824545525,-9426.667698775163,-6677.059205316153,-14305.345329609803,0.0
2053.5545221238413,-177.25272565960665,1137.851983732382,-4676.2613060539115,-10438.785049511436,-9438.231283605552,-6683.894939294157,-14331.366372714227,0.0
2052.2564472046733,-178.36025747137387,1138.9595155441493,-4673.915244044039,-10436.093628119399,-9439.16018125413,-6692.040657135541,-14345.62137893665,0.0
2054.983595429347,-174.2397627738313,1141.305577554022,-4674.510691254667,-10437.022525767978,-9440.208168344834,-6693.076735282033,-14347.86026044861,0.0
2057.710743654021,-175.62120030248718,1139.3525107031635,-4677.345019977253,-10441.369290405559,-9441.172792826052,-6690.361496001572,-14332.759719187095,0.0
2055.3765905883615,-177.03836466378073,1138.1854341703338,-4677.547472028868,-10442.595911659451,-9439.588903245782,-6692.481288071406,-14313.860224721777,0.0
2052.923348080576,-180.2895064338071,1134.219755747554,-4681.834691945386,-10445.549329824165,-9440.553527727,-6680.858158519956,-14294.889276591184,0.0
2057.1629322202443,-178.56270952298723,1134.1959378591291,-4682.465865988651,-10443.012724706892,-9439.969989460584,-6679.691081987126,-14281.825164790014,0.0
2062.09323512424,-176.53818900685357,1135.7679184951858,-4681.453605730584,-10441.690831899297,-9436.49257775052,-6676.7138459339885,-14274.524981987723,0.0
2059.3422690111406,-178.6460721324751,1133.7910337559022,-4684.7523832774605,-10446.382955919042,-9439.076818644642,-6680.012623480865,-14289.434980141836,0.0
2057.9131957056347,-180.70631948124637,1132.0404189566573,-4684.740474333248,-10447.359489344472,-9439.195908086767,-6681.525059395859,-14308.465472993492,0.0
2059.2112706248026,-179.75360394424231,1133.1479507684246,-4681.548877284284,-10443.643898750157,-9437.743016892837,-6678.7502753943345,-14326.960063355582,0.0
2060.1997129944443,-176.50246217421594,1136.1728225984125,-4678.333462346895,-10436.927254214277,-9436.552122471583,-6678.142919239495,-14339.488272667186,0.0
2059.9138983333432,-177.1931809385439,1136.2800030963253,-4680.703342245192,-10440.321303314855,-9441.637241650342,-6683.2042205298285,-14345.52610738295,0.0
2059.8067178354304,-179.99178282849334,1134.219755747554,-4682.37059443495,-10442.607820603664,-9445.293287523595,-6690.694946439524,-14337.368480597352,0.0
2058.7706396889384,-179.47969822735365,1134.4698435760179,-4680.2984381419665,-10439.83303660214,-9441.934965255656,-6691.135577375388,-14319.564608999588,0.0
2059.2112706248026,-177.20508988275645,1136.7801787532526,-4676.832935376114,-10437.010616823765,-9435.504135380877,-6686.598269630406,-14299.891033160455,0.0
2059.6280836722417,-176.15710279205197,1136.637271422702,-4678.571641231147,-10440.095033374815,-9436.647394025282,-6684.085482401557,-14283.9925926367,0.0
2060.294984548145,-175.74028974461268,1137.4947154060058,-4679.298086828113,-10440.29748542643,-9441.16088388184,-6683.3590368045925,-14276.692409834406,0.0
2060.6522528745213,-174.7161205423333,1138.6975187714731,-4677.368837865679,-10437.570337201754,-9440.791706611251,-6684.823836942736,-14285.385939109567,0.0
2061.9026920168394,-173.78722289375435,1138.6498829946229,-4677.309293144616,-10435.998356565698,-9440.18435045641,-6685.228741045962,-14305.690688991966,0.0
2060.4617097671203,-172.98932363151346,1139.2572391494632,-4677.285475256191,-10435.58154351826,-9441.363335933453,-6687.181807896821,-14325.947803097515,0.0
2059.9615341101935,-176.32382801102767,1136.0656421004996,-4679.691081987126,-10439.96403498848,-9443.92375893915,-6691.6238440881025,-14340.714893921078,0.0
2062.9030433306934,-176.0261044057139,1137.673349569194,-4677.249748423554,-10437.26070465223,-9439.565085357357,-6689.444507297205,-14345.466562661886,0.0
2062.7720449443555,-176.97881994271796,1137.351808075455,-4676.963933762452,-10436.260353338375,-9437.778743725474,-6686.157638694542,-14332.950262294496,0.0
2062.2004156221533,-177.70526553968355,1136.4348193710885,-4678.77409328276,-10439.309043056788,-9440.362984619598,-6688.086887656974,-14313.502956395401,0.0
2064.606022353088,-176.99072888693053,1135.8155542720358,-4680.262711309329,-10440.29748542643,-9441.375244877665,-6689.039603193979,-14293.102934959301,0.0
2064.486932910963,-177.88389970287184,1134.5532061855056,-4681.691784614834,-10440.619026920167,-9440.18435045641,-6690.3376781131465,-14277.609398538772,0.0
2063.7962141466346,-176.38337273209044,1135.60119327621,-4680.7509780220435,-10439.725856104225,-9440.351075675386,-6687.765346163236,-14272.857729797965,0.0
2065.1419248426528,-173.33468301367742,1136.1609136542,-4679.941169815589,-10437.284522540655,-9437.850197390751,-6683.799667740456,-14284.195044688313,0.0
2062.9506791075437,-170.66707951006603,1138.5784293293477,-4678.571641231147,-10436.069810230974,-9437.326203845398,-6682.311049713888,-14304.797518176025,0.0
2058.675368135238,-170.6789884542786,1140.3052262401677,-4677.79755985733,-10437.713244532306,-9436.409215141031,-6681.8823277222355,-14328.0199593905,0.0
2059.580447895392,-173.95394811273005,1137.589986959706,-4677.547472028868,-10436.581894832114,-9434.34896779226,-6680.727160133618,-14338.47601240912,0.0
2061.057156977748,-175.74028974461268,1133.4099475411006,-4679.155179497562,-10437.355976205929,-9434.634782453362,-6680.346073918817,-14340.405261371554,0.0
2060.556981320821,-172.07233492714704,1136.875450306953,-4678.381098123746,-10436.700984274239,-9436.087673647291,-6678.40491601217,-14324.768817620474,0.0
2060.1997129944443,-171.33398038596889,1141.1626702234714,-4676.3327597191865,-10436.677166385813,-9435.051595500801,-6677.059205316153,-14305.762142657242,0.0
2058.6158234141753,-180.3133243222322,1136.8635413627405,-4680.012623480865,-10438.713595846159,-9437.909742111813,-6680.989156906295,-14291.650043765369,0.0
2060.175895106019,-181.18267724974842,1137.5185332944307,-4680.572343858856,-10438.451599073484,-9439.029182867793,-6684.014028736282,-14281.968072120566,0.0
2061.1286106430234,-177.77671920495888,1137.2327186333293,-4680.393709695666,-10438.975592618835,-9436.82602818847,-6683.132766864554,-14271.583472767223,0.0
2062.4266855621913,-177.2408167153941,1136.3871835942384,-4680.13171292299,-10437.463156703841,-9435.2421386082,-6680.179348699841,-14281.51553224049,0.0
2061.807420463139,-175.1329335897726,1138.5665203851354,-4677.285475256191,-10433.426024615788,-9432.931803430965,-6678.559732286934,-14301.403469075449,0.0
2059.604265783817,-176.0737401825641,1139.578780643202,-4676.821026431901,-10433.568931946338,-9434.944415002887,-6678.250099737408,-14321.184225412495,0.0
2058.0203762035476,-179.72978605581721,1138.2330699471838,-4679.309995772324,-10436.927254214277,-9436.611667192645,-6680.989156906295,-14338.80946284707,0.0
2058.401462418349,-173.6562245074163,1140.853037673945,-4677.916649299456,-10437.49888353648,-9438.136012051851,-6688.408429150713,-14343.954126746894,0.0
2060.949976479835,-172.07233492714704,1140.0432294674915,-4677.225930535128,-10437.224977819591,-9440.8393423881,-6697.911766632329,-14326.269344591256,0.0
2061.402516359912,-170.8933494501045,1141.8414800435867,-4676.166034500212,-10435.498180908771,-9433.515341697383,-6681.382152065309,-14310.585265063326,0.0
2060.104441440744,-170.61944373321583,1143.7826379502324,-4674.7488701389175,-10436.212717561524,-9434.944415002887,-6681.024883738932,-14290.375786734627,0.0
2059.9496251659807,-172.69160002619967,1142.8894671342912,-4675.41577101482,-10435.105185749757,-9434.8610523934,-6681.453605730584,-14278.633567741052,0.0
2059.890080444918,-170.2383575184142,1144.223268886097,-4675.439588903246,-10434.104834435902,-9434.325149903834,-6677.035387427727,-14273.596084339142,0.0
2058.163283534098,-169.8215444709749,1142.9609207995666,-4675.356226293758,-10434.664554813893,-9436.95702657481,-6682.132415550699,-14284.326043074652,0.0
2059.401813732203,-168.49965166338177,1143.9374542249955,-4674.6416896410055,-10435.236184136096,-9435.837585818828,-6687.777255107448,-14305.38105644244,0.0
2058.7349128563005,-169.71436397306195,1143.365824902793,-4676.118398723361,-10438.141966523957,-9438.993456035156,-6684.919108496436,-14328.008050446288,0.0
2056.9128443917803,-171.7627023776207,1142.949011855354,-4677.440291530955,-10438.439690129271,-9438.398008824526,-6682.180051327549,-14342.846594935125,0.0
2056.317397181153,-171.91751865238388,1142.9728297437791,-4676.749572766626,-10436.534259055263,-9435.039686556589,-6681.953781387511,-14350.908950167022,0.0
2058.2942819204363,-172.08424387135958,1141.4008491077225,-4676.249397109699,-10436.284171226798,-9433.396252255257,-6679.500538879725,-14338.654646572308,0.0
2058.4967339720497,-172.20333331348507,1140.531496180206,-4676.559029659225,-10437.40361198278,-9434.313240959622,-6680.5247080820045,-14318.50471296467,0.0
2059.294633234291,-174.2397627738313,1139.7097790295402,-4677.857104578394,-10438.511143794547,-9434.992050779738,-6682.442048100225,-14298.104691528573,0.0
2059.604265783817,-173.822949726392,1140.9602181718578,-4677.14256792564,-10436.736711106876,-9433.277162813132,-6677.630834638356,-14283.897321082999,0.0
2059.24699745744,-172.17951542505998,1142.020114206775,-4677.04729637194,-10436.736711106876,-9435.563680101941,-6681.775147224323,-14278.788384015814,0.0
2060.949976479835,-172.45342114194867,1142.6631971942527,-4675.892128783323,-10435.81972240251,-9436.337761475757,-6682.9422237571525,-14292.090674701234,0.0
2058.6158234141753,-170.69089739849113,1143.365824902793,-4675.284772628482,-10436.33180700365,-9436.159127312569,-6682.287231825462,-14315.40838746941,0.0
2058.8182754657887,-170.0239965225883,1142.341655700514,-4676.428031272888,-10438.189602300807,-9437.076116016935,-6682.060961885424,-14333.331348509297,0.0
2060.628434986096,-170.7980778964041,1142.0439320952,-4676.439940217099,-10437.808516086005,-9438.302737270827,-6687.991616103274,-14339.142913285023,0.0
2060.187804050232,-171.64361293549518,1141.9367515972872,-4675.118047409506,-10432.866304237798,-9435.992402093592,-6683.3590368045925,-14344.418575571182,0.0
2060.294984548145,-171.45306982809439,1141.067398669771,-4678.309644458471,-10435.998356565698,-9437.7072900602,-6682.060961885424,-14337.475661095266,0.0
2058.199010366736,-170.7266242311288,1141.7581174340987,-4679.643446210276,-10439.809218713715,-9438.588551931929,-6683.454308358292,-14319.052524398448,0.0
2059.4851763416914,-170.34553801632714,1142.5321988079147,-4677.535563084654,-10437.201159931166,-9436.194854145206,-6681.4297878421585,-14297.985602086446,0.0
2060.0091698870433,-172.3462406440357,1139.3763285915886,-4679.01227216701,-10435.06945891712,-9433.241435980493,-6680.631888579917,-14282.182433116392,0.0
2060.5212544881833,-173.40613667895272,1137.5185332944307,-4680.7867048546805,-10438.630233236672,-9436.73075663477,-6682.2276871044,-14274.14389577292,0.0
2060.4617097671203,-171.77461132183328,1139.1976944284004,-4680.119803978779,-10440.547573254893,-9439.969989460584,-6679.178997385986,-14287.422368569913,0.0
2060.473618711333,-170.32172012790204,1141.627119047761,-4678.142919239495,-10436.74862005109,-9438.92200236988,-6679.155179497562,-14307.667573731249,0.0
2060.175895106019,-170.44080957002754,1140.8411287297324,-4678.440642844808,-10438.118148635533,-9443.102041788485,-6692.9457368956955,-14330.020662018209,0.0
2059.8424446680683,-171.00052994801746,1140.5791319570562,-4677.666561470993,-10436.879618437428,-9440.9346139418,-6692.957645839908,-14341.357976908557,0.0
2060.83088703771,-170.32172012790204,1140.26949940753,-4679.1670884417745,-10435.62917929511,-9435.682769544066,-6684.418932839509,-14344.847297562834,0.0
2057.948922538272,-172.16760648084744,1139.447782256864,-4679.822080373464,-10436.843891604789,-9438.993456035156,-6686.919811124145,-14333.629072114612,0.0
2056.9842980570556,-173.52522612107822,1139.7216879737525,-4678.16673712792,-10438.177693356596,-9443.113950732697,-6687.634347776898,-14316.944641272828,0.0
2056.900935447568,-169.48809403302351,1143.1157370743297,-4676.380395496037,-10436.165081784673,-9437.921651056025,-6683.644851465693,-14295.913445793463,0.0
2057.1272053876064,-169.92872496888788,1144.4257209377104,-4676.559029659225,-10434.878915809717,-9435.539862213516,-6683.8115766846695,-14283.099421820758,0.0
2058.568187637325,-170.9171673385296,1142.174930481538,-4678.404916012171,-10436.272262282586,-9437.885924223387,-6686.5625427977675,-14280.848631364586,0.0
2057.7702883750844,-171.69124871234538,1138.411704110372,-4680.774795910468,-10436.772437939515,-9438.624278764566,-6683.799667740456,-14293.877016333117,0.0
2060.1997129944443,-168.28529066755587,1141.2817596655968,-4679.059907943861,-10434.450193818067,-9436.933208686383,-6682.954132701365,-14311.657070042455,0.0
2060.4140739902705,-167.99947600645464,1143.0681012974794,-4679.560083600788,-10437.701335588092,-9437.219023347485,-6679.953078759802,-14330.40174823301,0.0
2058.115647757248,-174.7399384307584,1138.7451545483234,-4681.977599275936,-10439.83303660214,-9438.695732429842,-6680.572343858855,-14347.002816465307,0.0
2057.3058395507946,-172.90596102202556,1141.007853948708,-4679.214724218625,-10435.58154351826,-9436.040037870443,-6681.179700013695,-14352.087935644066,0.0
2056.150671962177,-173.26322934840212,1138.888061878874,-4680.6795243567685,-10437.153524154317,-9436.063855758868,-6683.025586366641,-14339.666906830375,0.0
2058.139465645673,-171.834156042896,1138.1020715608458,-4679.2861778839,-10435.67681507196,-9434.098879963796,-6681.465514674796,-14319.088251231087,0.0
2059.5923568396042,-167.66602556850322,1141.5913922151233,-4675.904037727535,-10433.6284766674,-9433.979790521671,-6681.941872443298,-14297.544971150583,0.0
2061.62878629995,-167.86847762011658,1144.9973502599128,-4673.8080635461265,-10432.40185541351,-9432.66980665829,-6675.4276799590325,-14286.362472534998,0.0
2063.7843052024223,-171.8817918197462,1142.4250183100016,-4677.023478483515,-10433.735657165313,-9435.265956496627,-6677.880922466818,-14283.01605921127,0.0
2057.198659052882,-170.88144050589193,1142.7941955805907,-4677.761833024693,-10434.331104375942,-9439.279270696255,-6686.848357458869,-14296.342167785115,0.0
2052.7566228616,-170.36935590475224,1142.2106573141757,-4680.060259257716,-10437.820425030219,-9441.184701770264,-6691.528572534401,-14314.693850816655,0.0
2054.2333319439567,-172.0008812618717,1139.0786049862747,-4681.894236666449,-10438.713595846159,-9440.18435045641,-6694.803532192853,-14337.880565198491,0.0
2054.828779154584,-168.8331021013332,1141.9843873741372,-4676.725754878201,-10430.853692665876,-9430.84773819377,-6686.860266403082,-14355.720163628892,0.0
2053.4711595143535,-165.45096194496875,1145.6166153589652,-4675.939764560173,-10432.139858640832,-9433.360525422619,-6687.050809510483,-14357.38741581865,0.0
2055.5314068631246,-170.97671205959233,1142.0558410394126,-4680.167439755628,-10438.975592618835,-9438.87436659303,-6683.799667740456,-14345.204565889211,0.0
2055.519497918912,-172.76305369147497,1139.66214325269,-4683.097040031916,-10442.155280723586,-9441.696786371404,-6685.836097200802,-14332.866899685008,0.0
2056.103036185327,-171.53643243758225,1140.7934929528822,-4681.310698400033,-10439.571039829465,-9438.743368206691,-6685.526464651276,-14310.09699835061,0.0
2057.639289988746,-170.6313526774284,1141.9486605414995,-4678.690730673272,-10435.950720788847,-9435.635133767215,-6685.681280926039,-14292.269308864421,0.0
2058.4729160836246,-171.31016249754379,1140.7815840086698,-4678.631185952209,-10435.641088239321,-9437.088024961147,-6685.014380050136,-14285.004852894766,0.0
2059.85435361228,-169.60718347514901,1145.0568949809754,-4675.225227907419,-10434.009562882202,-9437.6120185065,-6684.6809296121855,-14298.688229794987,0.0
2059.6638105048796,-172.64396424934947,1142.9251939669289,-4677.6189256941425,-10434.83128003287,-9437.588200618075,-6685.514555707064,-14319.231158561637,0.0
2056.8056638938674,-174.27548960646894,1140.9244913392204,-4679.107543720711,-10434.902733698143,-9436.063855758868,-6685.526464651276,-14343.156227484651,0.0
2053.31634323959,-173.27513829261466,1139.6502343084774,-4682.346776546526,-10438.785049511436,-9438.481371434016,-6687.134172119971,-14359.614388386397,0.0
2052.994801745851,-174.22785382961874,1137.4113527965178,-4686.026640308203,-10443.274721479567,-9440.88697816495,-6686.229092359817,-14362.972710654338,0.0
2053.9475172828556,-173.83485867060455,1139.578780643202,-4683.573397800417,-10439.440041443126,-9436.671211913708,-6682.513501765501,-14351.218582716549,0.0
2055.5314068631246,-172.54869269564907,1139.9122310811533,-4682.823134315027,-10438.463508017696,-9437.909742111813,-6689.337326799293,-14332.092818311192,0.0
2057.3058395507946,-173.22750251576446,1139.9955936906413,-4681.798965112747,-10436.689075330027,-9435.087322333438,-6678.786002226972,-14316.706462388578,0.0
2057.8655599287845,-172.64396424934947,1141.1269433908337,-4679.524356768151,-10433.854746607438,-9431.240733352784,-6671.831178806843,-14301.12956335856,0.0
2059.15172590374,-172.16760648084744,1141.6628458803984,-4679.822080373464,-10432.830577405159,-9432.514990383528,-6678.16673712792,-14292.936209740325,0.0
2058.330008753074,-171.8817918197462,1142.6631971942527,-4679.452903102875,-10433.509387225275,-9437.588200618075,-6688.610881202327,-14307.57230217755,0.0
2058.270464032011,-172.21524225769764,1141.0554897255583,-4681.453605730584,-10437.272613596442,-9441.720604259828,-6691.6595709207395,-14327.04342596507,0.0
2059.4613584532663,-170.78616895219153,1141.5913922151233,-4679.798262485039,-10433.6284766674,-9437.981195777089,-6686.348181801943,-14343.846946248981,0.0
2059.1398169595277,-169.45236720038585,1142.1153857604754,-4678.86936483646,-10432.925848958861,-9436.95702657481,-6683.44239941408,-14352.457112914653,0.0
2056.5079402885535,-169.21418831613482,1143.0204655206292,-4678.655003840635,-10434.307286487516,-9437.826379502325,-6684.09739134577,-14357.768502033452,0.0
2055.674314193675,-170.9409852269547,1142.1392036489003,-4679.33381366075,-10435.81972240251,-9439.946171572159,-6687.83679982851,-14346.240644035703,0.0
2054.7454165450963,-173.47759034422802,1139.9955936906413,-4678.893182724885,-10432.544762744059,-9435.408863827177,-6685.324012599663,-14328.127139888413,0.0
2056.9366622802054,-172.70350897041223,1140.4004977938682,-4679.702990931339,-10432.961575791496,-9434.551419843874,-6683.823485628881,-14310.394721955925,0.0
2061.521605802038,-171.7627023776207,1140.6863124549693,-4680.703342245192,-10434.343013320155,-9435.873312651467,-6684.585658058484,-14297.747423202196,0.0
2064.2844808593495,-167.57075401480282,1145.259347032589,-4676.0350361138735,-10430.996599996428,-9431.633728511797,-6679.810171429252,-14290.887871335766,0.0
2064.486932910963,-167.74938817799108,1144.8306250409369,-4675.284772628482,-10430.270154399463,-9430.407107257906,-6677.094932148791,-14297.211520712632,0.0
2062.736318111718,-169.8453623594,1141.9010247646495,-4677.880922466818,-10432.985393679923,-9434.182242573284,-6681.560786228497,-14314.265128825004,0.0
2061.664513132588,-168.201928058068,1143.3896427912184,-4678.5597322869335,-10432.449491190357,-9433.967881577459,-6684.383206006872,-14337.261300099439,0.0
2060.83088703771,-168.02329389487974,1145.3784364747144,-4677.642743582567,-10430.043884459423,-9427.703776921657,-6674.7488701389175,-14356.87533121751,0.0
2059.9377162217684,-168.86882893397086,1144.0684526113337,-4677.583198861505,-10429.353165695095,-9425.834072680287,-6672.224173965857,-14362.091448782607,0.0
2061.4263342483373,-167.52311823795262,1143.794546894445,-4678.952727445948,-10432.556671688271,-9429.335302278776,-6673.022073228098,-14348.586706045575,0.0
2063.5699442065966,-167.70175240114088,1144.247086774522,-4679.405267326025,-10434.378740152792,-9433.038983928878,-6678.059556630007,-14331.973728869067,0.0
2064.0463019750987,-167.3087572421267,1145.7476137453034,-4675.713494620135,-10430.91323738694,-9432.491172495103,-6680.703342245193,-14311.252165939228,0.0
2065.415830559542,-164.18861385843837,1148.3199456952143,-4672.367081296407,-10428.245633883327,-9429.692570605153,-6675.487224680096,-14295.687175853423,0.0
2064.641749185726,-167.22539463263882,1143.4372785680685,-4676.416122328675,-10428.936352647655,-9433.955972633246,-6680.024532425077,-14289.327799643921,0.0
2066.416181873396,-166.0702270440214,1143.0561923532669,-4675.737312508559,-10427.531097230574,-9434.313240959622,-6684.954835329074,-14297.330610154757,0.0
2066.178002989145,-167.4516645726773,1142.7108329711027,-4675.642040954859,-10426.304475976682,-9431.990996838176,-6682.406321267588,-14315.313115915707,0.0
2060.6522528745213,-167.03485152523803,1145.259347032589,-4677.55938097308,-10431.210960992252,-9437.147569682209,-6686.967446900995,-14337.58284159318,0.0
2057.829833096147,-167.63029873586558,1146.605057728607,-4676.963933762452,-10430.115338124699,-9436.278216754694,-6684.156936066833,-14348.157984053923,0.0
2057.9727404266973,-167.72557028956598,1148.9034839616295,-4673.462704163962,-10426.768924800972,-9429.382938055627,-6678.738366450122,-14351.301945326037,0.0
2059.282724290078,-166.8562173620498,1148.2842188625768,-4674.367783924116,-10425.887662929243,-9427.179783376303,-6676.999660595089,-14338.178288803805,0.0
2059.75908205858,-168.97600943188382,1144.568628268261,-4677.4283825867415,-10427.674004561126,-9428.239679411221,-6679.405267326025,-14323.577923199218,0.0
2058.8778201868513,-170.36935590475224,1143.3539159585807,-4679.8458982618895,-10431.270505713315,-9431.193097575935,-6680.346073918817,-14305.583508494054,0.0
2062.783953888568,-168.8807378781834,1143.1514639069674,-4679.131361609137,-10429.603253523559,-9428.025318415395,-6676.690028045563,-14288.041633668965,0.0
2065.1776516752907,-166.1654985977218,1143.6754574523195,-4679.440994158663,-10428.20990705069,-9424.96471975277,-6675.88021983911,-14278.728839294752,0.0
2065.892188328044,-166.24886120720967,1143.5563680101939,-4680.64379752413,-10430.829874777452,-9426.489064611977,-6676.439940217099,-14288.208358887941,0.0
2065.832643606981,-167.80893289905381,1138.7689724367485,-4683.692487242543,-10434.55737431598,-9429.049487617676,-6677.499836252017,-14308.525017714555,0.0
2065.963641993319,-166.61803847779873,1138.4831577756474,-4682.787407482389,-10431.961224477644,-9426.882059770991,-6675.153774242144,-14332.985989127134,0.0
2066.070822491232,-166.26077015142224,1142.7703776921658,-4680.465163360942,-10431.806408202881,-9428.025318415395,-6673.974788765102,-14347.717353118058,0.0
2066.678178646072,-169.8453623594,1140.0908652443418,-4684.1093002899825,-10436.724802162664,-9438.124103107637,-6680.858158519956,-14353.850459387522,0.0
2065.785007830131,-172.03660809450938,1142.0558410394126,-4682.251504992824,-10433.926200272716,-9438.243192549766,-6683.108948976129,-14343.156227484651,0.0
2060.664161818734,-173.10841307363896,1142.7227419153155,-4681.143973181058,-10432.020769198707,-9434.992050779738,-6679.917351927165,-14327.50787478936,0.0
2061.7836025747138,-171.77461132183328,1142.496471975277,-4680.429436528305,-10430.603604837414,-9434.551419843874,-6678.619277007997,-14308.727469766167,0.0
2065.6778273322175,-171.50070560494459,1143.2348265164553,-4680.429436528305,-10430.07961129206,-9436.07576470308,-6685.979004531354,-14293.769835835205,0.0
2068.774152827481,-170.1192680762887,1141.6866637688236,-4682.084779773849,-10432.40185541351,-9438.743368206691,-6689.456416241418,-14287.422368569913,0.0
2068.1191608957906,-170.9171673385296,1139.983684746429,-4683.799667740456,-10433.568931946338,-9434.432330401747,-6682.870770091877,-14297.985602086446,0.0
2065.654009443793,-172.13187964820978,1139.8645953043033,-4683.8473035173065,-10432.282765971382,-9432.324447276127,-6678.797911171185,-14317.540088483454,0.0
2064.7846565162763,-170.46462745845267,1143.4730054007061,-4679.571992545,-10429.019715257144,-9430.46665197897,-6677.511745196229,-14338.273560357506,0.0
2062.593410781167,-171.67933976813285,1142.5917435289773,-4680.739069077831,-10430.92514633115,-9431.836180563412,-6679.500538879725,-14352.504748691505,0.0
2060.8547049261347,-172.60823741671183,1140.614858789694,-4681.036792683144,-10430.63933167005,-9431.681364288648,-6676.189852388636,-14359.44766316742,0.0
2063.4389458202586,-170.2621754068393,1142.1034768162629,-4679.250451051262,-10430.377334897375,-9431.074008133808,-6675.010866911594,-14345.835739932476,0.0
2065.6063736669425,-169.66672819621175,1143.3777338470059,-4678.690730673272,-10428.138453385414,-9429.53775433039,-6677.333111033041,-14326.400342977591,0.0
2068.131069840003,-168.2495638349182,1145.0330770925505,-4675.463406791671,-10424.7086774522,-9425.643529572884,-6672.081266635307,-14304.845153952876,0.0
2069.7625951971227,-166.5823116451611,1146.1763357369553,-4676.892480097176,-10427.662095616914,-9428.680310347087,-6678.226281848983,-14293.936561054179,0.0
2070.3104066309,-166.0702270440214,1145.6880690242408,-4680.31034708618,-10430.472606451074,-9430.89537397062,-6680.238893420904,-14288.136905222667,0.0
2068.4645202779548,-170.6551705658535,1141.6033011593356,-4683.001768478215,-10432.628125353547,-9432.872258709904,-6679.869716150314,-14302.165641505053,0.0
2066.0470046028067,-171.34588933018142,1141.7581174340987,-4683.859212461519,-10433.318844117875,-9433.384343311043,-6676.95202481824,-14322.172667782137,0.0
2066.9044485861104,-163.8908902531246,1147.4148659350606,-4678.738366450122,-10429.84143240781,-9430.490469867393,-6676.594756491863,-14336.725397609875,0.0
2069.1314211538574,-166.4155864261854,1144.1994509976716,-4680.441345472517,-10430.055793403635,-9429.228121780863,-6678.607368063784,-14352.147480365127,0.0
2067.5475315735885,-170.59562584479073,1140.6863124549693,-4684.669020667972,-10434.426375929641,-9431.621819567586,-6672.2956276311315,-14364.723325453582,0.0
2066.6067249807966,-166.76094580834933,1144.640081933536,-4681.298789455821,-10433.378388838937,-9430.97873658011,-6672.343263407983,-14353.100195902132,0.0
2068.131069840003,-166.4394043146105,1146.0810641832547,-4678.2620086816205,-10429.400801471944,-9426.512882500403,-6675.094229521082,-14335.296324304369,0.0
2068.7026991622056,-168.1304743927927,1144.93780553885,-4677.499836252017,-10428.031272887501,-9425.691165349735,-6675.41577101482,-14312.228699364658,0.0
2068.297795058979,-168.201928058068,1144.7591713756617,-4678.440642844808,-10430.377334897375,-9428.19204363437,-6675.522951512734,-14294.651097706934,0.0
2068.2263413937035,-168.44010694231903,1144.0327257786962,-4678.893182724885,-10429.69852507726,-9428.156316801735,-6673.367432610261,-14290.67351033994,0.0
2068.345430835829,-166.59422058937363,1145.1640754788882,-4676.654301212926,-10427.995546054863,-9429.609207995665,-6676.832935376114,-14305.65496215933,0.0
2068.6312454969307,-167.4278466842522,1144.5448103798356,-4678.2977355142575,-10429.305529918245,-9430.228473094718,-6676.785299599264,-14322.911022323317,0.0
2067.2498079682746,-167.54693612637772,1144.056543667121,-4682.501592821288,-10434.390649097004,-9433.991699465883,-6681.644148837985,-14341.19125168958,0.0
2063.951030421398,-168.41628905389393,1142.7822866363783,-4683.3590368045925,-10433.902382384289,-9431.252642296997,-6675.511042568521,-14355.648709963618,0.0
2064.3916613572624,-169.08318992979676,1140.638676678119,-4682.442048100225,-10431.091871550127,-9428.978033952399,-6676.90438904139,-14360.483741313914,0.0
2065.7969167743436,-168.2257459464931,1142.3773825331514,-4681.489332563221,-10432.830577405159,-9430.89537397062,-6676.594756491863,-14348.801067041402,0.0
2065.4991931690297,-171.54834138179478,1141.9367515972872,-4682.83504325924,-10434.652645869679,-9433.69397586057,-6678.500187565871,-14335.534503188619,0.0
2067.642803127289,-169.7977265825498,1144.6162640451112,-4679.250451051262,-10429.519890914069,-9428.430222518624,-6676.130307667573,-14313.586319004888,0.0
2067.738074680989,-168.14238333700527,1144.4257209377104,-4678.91700061331,-10429.23407625297,-9426.715334552015,-6675.308590516907,-14300.462662482658,0.0
2067.7857104578393,-167.46357351688988,1144.6281729893235,-4680.250802365116,-10430.329699120524,-9429.251939669288,-6675.92785561596,-14297.11624915893,0.0
2066.7853591439853,-167.83275078747891,1144.6281729893235,-4681.85850983381,-10432.628125353547,-9433.443888032107,-6680.2269844766915,-14313.08614334796,0.0
2066.975902251386,-168.79737526869556,1144.9139876504248,-4682.001417164361,-10431.484866709141,-9430.561923532669,-6676.308941830762,-14327.960414669436,0.0
2070.739128622552,-165.18896517229265,1148.093675755176,-4677.904740355243,-10424.720586396412,-9421.106221827904,-6667.984589826189,-14342.977593321462,0.0
2070.286588742475,-162.2474559517926,1147.3672301582103,-4679.107543720711,-10427.185737848411,-9423.41655700514,-6671.342912094128,-14354.648358649763,0.0
2068.0238893420906,-164.2005228026509,1145.7357048010908,-4679.857807206102,-10428.662446930766,-9423.690462722028,-6670.163926617086,-14357.411233707075,0.0
2066.10654932387,-166.8443084178372,1144.568628268261,-4680.203166588266,-10428.888716870804,-9424.928992920133,-6671.462001536253,-14343.537313699453,0.0
2067.9881625094526,-166.57040270094853,1146.5693308959694,-4676.201761332849,-10426.042479204007,-9423.488010670413,-6670.759373827713,-14324.149552521421,0.0
2068.4645202779548,-168.41628905389393,1143.9969989460585,-4679.691081987126,-10429.00780631293,-9425.76261901501,-6670.342560780274,-14307.95338839235,0.0
2069.1314211538574,-167.2849393537016,1141.8414800435867,-4681.656057782197,-10431.032326829065,-9429.561572218816,-6671.795451974205,-14297.151975991568,0.0
2070.3818602961755,-162.42609011498084,1146.343060955931,-4677.630834638356,-10428.424268046516,-9426.322339393,-6671.7716340857805,-14293.233933345638,0.0
2068.8456064927564,-159.90139394192008,1149.7966547775707,-4674.629780696792,-10425.31603360704,-9422.892563459785,-6669.508934685396,-14306.655313473182,0.0
2066.7734501997725,-166.213134374572,1145.9024300200665,-4677.833286689968,-10426.566472749359,-9425.119536027534,-6672.664804901721,-14326.138346204918,0.0
2067.023538028236,-166.558493756736,1145.6880690242408,-4679.178997385986,-10426.768924800972,-9424.607451426395,-6672.664804901721,-14346.574094473654,0.0
2068.8336975485436,-165.89159288083314,1145.8309763547913,-4679.548174656576,-10426.161568646132,-9422.690111408174,-6669.318391577995,-14359.757295716949,0.0
2068.5955186642927,-164.98651312067926,1146.3073341232932,-4680.572343858856,-10428.459994879155,-9423.226013897736,-6666.424518134344,-14363.925426191341,0.0
2067.4046242430377,-164.78406106906593,1145.414163307352,-4681.405969953733,-10431.449139876504,-9425.536349074971,-6665.245532657302,-14349.87287202053,0.0
2065.0704711773774,-166.8562173620498,1142.7822866363783,-4681.608422005347,-10430.996599996428,-9424.524088816905,-6667.067601121822,-14333.414711118785,0.0
2067.559440517801,-163.67652925729868,1147.6768627077367,-4675.939764560173,-10424.482407512161,-9418.47434515693,-6661.744303058812,-14308.798923431443,0.0
2070.238952965625,-163.74798292257398,1150.2730125460728,-4675.225227907419,-10423.708326138345,-9419.569968024485,-6666.114885584818,-14294.341465157406,0.0
2071.7275709921937,-162.84290316242013,1152.8215266075586,-4672.84343906491,-10422.898517931892,-9423.23792284195,-6670.271107114999,-14292.721848744499,0.0
2071.775206769044,-161.8306429043533,1152.916798161259,-4672.962528507035,-10423.660690361496,-9424.512179872692,-6674.355874979903,-14309.57300480526,0.0
2067.5713494620136,-162.52136166868124,1150.4040109324108,-4676.690028045563,-10426.53074591672,-9425.881708457136,-6673.950970876676,-14330.925741778363,0.0
2066.832994920835,-160.90174525577436,1150.713643481937,-4674.629780696792,-10423.267695202483,-9423.61900905675,-6672.629078069083,-14346.109645649365,0.0
2068.4407023895296,-162.06882178860434,1148.593851412103,-4678.035738741582,-10426.447383307233,-9427.894320029058,-6676.39230444025,-14359.030850119982,0.0
2065.7969167743436,-164.23624963528857,1145.4737080284146,-4680.881976408382,-10428.983988424507,-9428.799399789212,-6677.19020370249,-14366.735937025502,0.0
2066.094640379657,-163.08108204667113,1147.6530448193114,-4678.273917625833,-10426.173477590344,-9423.773825331515,-6676.511393882375,-14351.099493274423,0.0
2067.2498079682746,-163.28353409828452,1149.6418385028073,-4677.452200475166,-10425.220762053339,-9419.558059080271,-6666.114885584818,-14330.425566121436,0.0
2067.5713494620136,-164.78406106906593,1147.7006805961616,-4679.929260871378,-10427.864547668525,-9422.166117862822,-6663.64973413282,-14310.311359346437,0.0
2069.4291447591713,-162.5570885013189,1148.3913993604897,-4680.45325441673,-10429.817614519385,-9422.249480472308,-6668.329949208353,-14296.997159716804,0.0
2073.3710052935257,-160.48493220833507,1149.2607522880057,-4678.86936483646,-10428.650537986554,-9423.23792284195,-6665.5789830952535,-14287.219916518301,0.0
2070.441405017238,-159.42503617341802,1148.2127651973015,-4677.773741968906,-10426.971376852583,-9421.963665811207,-6661.303672122948,-14297.271065433693,0.0
2070.179408244562,-157.80541976051114,1150.8327329240626,-4674.224876593566,-10421.886257673825,-9417.414449122012,-6661.22030951346,-14318.49280402046,0.0
2071.1916685026285,-159.0796767912541,1152.5476208906698,-4670.997552711964,-10416.753502718217,-9413.591678029785,-6663.530644690695,-14341.036435414819,0.0
2069.857866750823,-161.30664935900106,1150.9756402546132,-4673.950970876676,-10421.4813535706,-9419.045974479131,-6668.008407714614,-14356.672879165897,0.0
2069.3338732054713,-159.09158573546662,1152.6428924443703,-4674.391601812542,-10422.576976438153,-9424.285909932654,-6674.248694481991,-14364.890050672557,0.0
2071.9181140995947,-157.46006037834715,1153.9052405309008,-4673.045891116523,-10421.445626737961,-9422.475750412346,-6672.605260180658,-14351.301945326037,0.0
2071.608481550068,-157.94832709106174,1152.6548013885829,-4673.438886275537,-10423.39869358882,-9422.404296747072,-6673.307887889198,-14335.534503188619,0.0
2070.441405017238,-158.49613852483907,1151.642541130516,-4675.213318963208,-10425.45894093759,-9424.321636765293,-6675.570587289584,-14317.075639659166,0.0
2071.167850614204,-161.59246402010228,1148.43903513734,-4681.906145610661,-10430.710785335326,-9429.525845386177,-6678.428733900596,-14304.059163634847,0.0
2072.1324750954204,-160.4253874872723,1150.1539231039471,-4679.857807206102,-10428.924443703443,-9429.764024270427,-6681.179700013695,-14298.581049297074,0.0
2070.524767626726,-159.9371207745577,1150.7731882029998,-4677.976194020519,-10426.447383307233,-9427.16787443209,-6671.259549484641,-14312.050065201469,0.0
2070.560494459364,-161.86636973699095,1150.2253767692225,-4677.464109419379,-10425.589939323929,-9425.274352302296,-6668.437129706266,-14329.484759528643,0.0
2071.0487611720782,-162.23554700758004,1150.3325572671354,-4678.535914398509,-10427.161919959986,-9424.393090430567,-6667.984589826189,-14351.254309549186,0.0
2070.203226132987,-161.759189239078,1149.677565335445,-4679.8816250945265,-10426.923741075734,-9423.61900905675,-6667.722593053512,-14361.972359340481,0.0
2072.5016523660092,-161.6400997969525,1149.308388064856,-4680.59616174728,-10425.673301933417,-9423.79764321994,-6670.6521933298,-14361.972359340481,0.0
2070.7986733436146,-160.22293543565897,1148.963028682692,-4680.774795910468,-10424.684859563775,-9423.98818632734,-6670.259198170786,-14354.648358649763,0.0
2072.1682019280584,-157.86496448157388,1150.8089150356375,-4677.059205316153,-10422.612703270792,-9420.010598960349,-6664.745357000375,-14340.643440255804,0.0
2075.359798977022,-159.75848661136948,1148.6295782447407,-4677.6189256941425,-10423.112878927719,-9419.105519200195,-6661.1607647923975,-14318.21889830357,0.0
2075.0858932601327,-159.94902971877028,1148.9749376269046,-4678.5597322869335,-10425.018310001728,-9421.689760094318,-6663.852186184434,-14300.045849435217,0.0
2072.2753824259707,-164.23624963528857,1144.1994509976716,-4680.870067464169,-10422.93424476453,-9421.951756866994,-6668.734853311579,-14298.37859724546,0.0
2072.966101190299,-163.65271136887358,1144.6281729893235,-4680.54852597043,-10424.089412353147,-9422.666293519747,-6668.36567604099,-14309.608731637896,0.0
2071.3583937216044,-160.90174525577436,1147.1052333855343,-4682.251504992824,-10428.376632269665,-9427.16787443209,-6669.127848470594,-14330.294567735096,0.0
2068.774152827481,-160.97319892104966,1149.0106644595423,-4679.786353540827,-10425.101672611214,-9424.607451426395,-6666.35306446907,-14351.349581102888,0.0
2067.2021721914243,-159.30594673129252,1153.178794933935,-4676.606665436076,-10421.540898291662,-9421.18958443739,-6665.364622099428,-14367.426655789832,0.0
2068.607427608505,-158.41277591535123,1152.7500729422832,-4678.21437290477,-10425.327942551252,-9422.463841468134,-6665.174078992027,-14369.224906365926,0.0
2070.762946510977,-159.18685728916702,1150.237285713435,-4681.072519515783,-10428.293269660178,-9423.41655700514,-6664.042729291835,-14355.803526238382,0.0
2069.2862374286206,-160.80647370207396,1147.3553212139977,-4683.954484015219,-10431.15141627119,-9425.81025479186,-6664.149909789748,-14345.311746387124,0.0
2071.167850614204,-159.53221667133099,1148.5462156352528,-4681.191608957908,-10428.507630656004,-9424.571724593756,-6663.447282081207,-14320.350599317617,0.0
2074.5023549937177,-157.15042782882085,1152.1665346758682,-4675.356226293758,-10421.898166618037,-9418.89115820437,-6660.61295335862,-14301.582103238636,0.0
2072.882738580811,-160.06811916089578,1149.6537474470201,-4675.8802198391095,-10423.255786258269,-9418.71252404118,-6660.422410251219,-14297.271065433693,0.0
2071.7275709921937,-159.8656671092824,1148.4509440815523,-4677.690379359418,-10424.27995546055,-9420.879951887866,-6663.756914630733,-14311.16880332974,0.0
2072.0133856532952,-158.32941330586334,1149.7013832238704,-4677.416473642529,-10423.68450824992,-9424.512179872692,-6668.603854925242,-14328.317682995812,0.0
2071.2393042794793,-160.22293543565897,1149.7728368891455,-4677.309293144616,-10423.35105781197,-9425.917435289773,-6664.81681066565,-14349.491785805729,0.0
2069.0837853770076,-163.43835037304768,1147.7959521498622,-4679.3933583818125,-10423.255786258269,-9425.560166963398,-6668.389493929416,-14366.997933798179,0.0
2066.0350956585944,-164.06952441631287,1146.366878844356,-4682.787407482389,-10426.090114980856,-9426.798697161503,-6672.236082910069,-14374.04802877201,0.0
2068.059616174728,-163.55743981517318,1145.7952495221537,-4683.930666126795,-10427.674004561126,-9425.857890568712,-6673.105435837586,-14359.769204661161,0.0
2070.0365009140114,-161.9259144580537,1146.4383325096314,-4681.679875670622,-10426.352111753531,-9422.916381348212,-6671.462001536253,-14340.52435081368,0.0
2070.739128622552,-159.2225841218047,1147.641135875099,-4679.8816250945265,-10425.101672611214,-9420.379776230939,-6668.591945981028,-14319.600335832227,0.0
2071.417938442667,-157.29333515937145,1150.582645095599,-4676.404213384462,-10421.517080403237,-9416.84281979981,-6663.518735746482,-14307.000672855349,0.0
2070.0841366908617,-157.15042782882085,1151.8449931821294,-4675.284772628482,-10420.850179527335,-9417.3072686241,-6660.910676963934,-14300.784203976395,0.0
2068.6788812737805,-158.37704908271357,1151.5829964094535,-4674.4868733662415,-10419.444924110254,-9420.522683561489,-6667.746410941938,-14314.872484979844,0.0
2069.881684639248,-158.86531579542813,1151.2138191388642,-4673.974788765102,-10418.801841122775,-9419.022156590707,-6667.8059556630005,-14332.009455701704,0.0
2070.762946510977,-158.74622635330263,1151.0947296967386,-4675.892128783323,-10420.099916041941,-9417.604992229413,-6664.745357000375,-14351.004221720723,0.0
2067.583258406226,-160.19911754723387,1149.2250254553683,-4679.607719377639,-10426.11393286928,-9424.50027092848,-6671.783543029992,-14364.985322226257,0.0
2067.97625356524,-162.64045111080677,1146.581239840182,-4681.870418778023,-10427.6501866727,-9425.357714911785,-6672.271809742708,-14369.820353576553,0.0
2069.5839610339344,-161.7353713506529,1147.2957764929351,-4681.263062623183,-10426.364020697745,-9421.725486926956,-6662.99474220113,-14360.60283075604,0.0
2067.3808063546126,-162.04500390017924,1146.0929731274673,-4682.025235052786,-10427.7454582264,-9421.65403326168,-6660.982130629209,-14344.085125133231,0.0
2069.5839610339344,-158.43659380377633,1149.8800173870584,-4679.047998999648,-10425.82811820818,-9421.78503164802,-6665.733799370017,-14325.114177002639,0.0
2071.417938442667,-156.7931595024443,1151.5472695768158,-4676.725754878201,-10422.660339047641,-9421.689760094318,-6671.11664215409,-14312.073883089894,0.0
2072.2634734817584,-158.46041169220143,1150.797006091425,-4676.963933762452,-10421.147903132647,-9417.73599061575,-6666.638879130171,-14306.047957318344,0.0
2070.0960456350745,-157.68633031838561,1150.6540987608744,-4677.345019977253,-10420.13564287458,-9417.080998684061,-6662.4826575999905,-14320.481597703956,0.0
2069.1433300980702,-157.68633031838561,1149.391750674344,-4677.60701674993,-10422.00534711595,-9422.523386189197,-6666.793695404934,-14339.988448324113,0.0
2067.190263247212,-159.56794350396868,1147.6649537635242,-4680.846249575744,-10424.732495340626,-9427.239328097368,-6673.760427769275,-14360.221744541237,0.0
2065.4753752806046,-162.06882178860434,1146.9623260549836,-4683.597215688843,-10424.410953846887,-9427.822866363782,-6673.522248885025,-14374.536295484724,0.0
2065.356285838479,-159.7227597787318,1152.202261508506,-4678.881273780673,-10420.076098153519,-9422.499568300771,-6667.139054787098,-14376.48936233558,0.0
2067.6666210157136,-157.12660994039575,1154.1791462477895,-4676.9758427066645,-10418.40884596376,-9420.58222828255,-6665.007353773051,-14364.830505951495,0.0
2069.036149600157,-155.75708135595238,1150.0110157733966,-4680.727160133618,-10422.874700043469,-9423.190287065101,-6668.067952435677,-14345.645196825075,0.0
2071.0368522278654,-154.74482109788556,1146.6646024496697,-4682.739771705539,-10424.720586396412,-9423.202196009313,-6667.448687336624,-14322.005942563163,0.0
2072.882738580811,-154.3518259388714,1149.6180206143824,-4679.464812047088,-10421.743350343275,-9422.892563459785,-6670.961825879326,-14305.154786502402,0.0
2073.9188167273032,-158.8057710743654,1150.1420141597346,-4680.655706468343,-10423.565418807795,-9427.382235427918,-6667.960771937764,-14302.380002500879,0.0
2073.799727285177,-154.72100320946046,1156.680024532425,-4676.213670277061,-10420.45718436832,-9422.201844695457,-6660.910676963934,-14314.30085565764,0.0
2074.133177723129,-155.41172197378842,1156.0369415449472,-4675.499133624308,-10420.540546977807,-9420.046325792986,-6662.923288535854,-14337.54711476054,0.0
2073.1566442977,-156.40016434343013,1154.8103202910545,-4675.296681572695,-10419.028111062813,-9417.140543405123,-6661.8395746125125,-14357.5303231492,0.0
2074.740533877969,-155.32835936430055,1155.2628601711315,-4674.081969263015,-10415.824605069638,-9414.282396794113,-6659.386332104727,-14369.558356803878,0.0
2076.479239733001,-155.73326346752728,1154.7031397931416,-4676.094580834936,-10417.908670306835,-9415.29465705218,-6658.100166129771,-14369.177270589076,0.0
2075.4074347538717,-157.1861546614585,1153.6551527024371,-4679.464812047088,-10421.028813690522,-9417.843171113665,-6656.075645613638,-14360.4718323697,0.0
2073.120917465062,-157.71014820681071,1153.9290584193257,-4678.881273780673,-10419.242472058639,-9416.938091353511,-6658.636068619337,-14343.263407982564,0.0
2074.0259972252156,-155.48317563906372,1155.2033154500687,-4675.141865297932,-10415.407792022197,-9412.293603110616,-6655.718377287261,-14322.017851507375,0.0
2077.5986804889812,-152.32730542273777,1157.3707432967528,-4674.117696095653,-10414.193079712519,-9410.042812654445,-6653.491404719514,-14304.190162021187,0.0
2078.4918513049224,-154.24464544095844,1154.7031397931416,-4676.9758427066645,-10419.671194050292,-9414.842117172102,-6655.873193562024,-14299.855306327818,0.0
2078.741939133386,-156.26916595709207,1153.547972204524,-4678.833638003823,-10421.743350343275,-9417.092907628275,-6655.515925235648,-14313.431502730125,0.0
2078.47994236071,-154.9829999821366,1154.9413186773927,-4677.309293144616,-10419.504468831316,-9416.545096194497,-6655.182474797697,-14332.914535461858,0.0
2075.4074347538717,-154.64954954418513,1154.3577804109775,-4677.571289917292,-10418.861385843838,-9417.533538564137,-6657.135541648555,-14351.790212038752,0.0
2073.0613727439995,-153.10138679655356,1156.227484652348,-4675.6182230664335,-10415.574517241173,-9416.152101035483,-6657.3856294770185,-14365.09250272417,0.0
2073.0613727439995,-151.6604045468349,1157.8947368421052,-4673.438886275537,-10413.788175609292,-9414.9373887258,-6656.944998541154,-14369.582174692303,0.0
2073.978361448366,-149.2428888716871,1158.5735466622207,-4672.605260180659,-10413.942991884054,-9414.151398407774,-6654.908569080808,-14355.32716846988,0.0
2074.8358054316695,-149.65970191912635,1157.1682912451397,-4675.141865297932,-10415.705515627513,-9415.449473326942,-6658.576523898274,-14337.701931035304,0.0
2075.4074347538717,-152.6250290280515,1156.072668377585,-4675.737312508559,-10417.33704098463,-9416.568914082922,-6659.422058937364,-14318.599984518372,0.0
2076.6102381193396,-151.56513299313448,1156.09648626601,-4674.784596971555,-10417.575219868882,-9417.057180795637,-6660.10086875748,-14310.049362573762,0.0
2080.1710124388924,-150.29087596239154,1156.3227562060486,-4674.4868733662415,-10415.693606683299,-9413.079593428643,-6652.7411412341235,-14305.869323155155,0.0
2077.7534967637444,-152.8751168565151,1155.1556796732184,-4675.796857229622,-10416.82495638349,-9414.401486236238,-6653.181772169988,-14319.814696828053,0.0
2071.6561173269183,-155.93571551914067,1153.4050648739735,-4678.059556630007,-10418.599389071162,-9419.22460864232,-6658.8980653920125,-14338.083017250106,0.0
2074.0259972252156,-153.43483723450495,1155.7630358280585,-4678.9408185017355,-10420.754907973633,-9420.868042943654,-6660.803496466021,-14353.814732554883,0.0
2074.9906217064326,-154.70909426524793,1154.5483235183783,-4680.405618639879,-10422.850882155042,-9421.523034875343,-6660.946403796571,-14369.403540529114,0.0
2074.156995611554,-154.41137065993414,1154.0600568056639,-4679.905442982952,-10420.778725862057,-9419.784329020309,-6660.231867143819,-14376.06064034393,0.0
2075.8242478013112,-151.37458988573368,1155.7392179396336,-4677.273566311978,-10417.217951542505,-9416.783275078747,-6659.457785770002,-14362.782167546935,0.0
2076.3958771235134,-150.54096379085513,1156.7514781977004,-4675.141865297932,-10415.22915785901,-9414.2704878499,-6661.494215230348,-14347.276722182196,0.0
2074.561899714781,-151.8509476542357,1155.9893057680972,-4676.439940217099,-10417.682400366795,-9416.961909241936,-6661.529942062986,-14332.795446019732,0.0
2074.6928981011188,-152.1843980921871,1155.9773968238846,-4676.130307667573,-10417.28940520778,-9417.485902787288,-6659.624510988978,-14315.729928963146,0.0
2077.0270511667786,-150.278967018179,1155.036590231093,-4676.428031272888,-10415.93178556755,-9416.771366134535,-6659.553057323703,-14306.321863035233,0.0
2075.63370469391,-149.56443036542595,1154.298235689915,-4675.356226293758,-10412.442464913272,-9414.746845618401,-6655.563561012498,-14318.981070733174,0.0
2075.883792522374,-150.60050851191787,1155.381949613257,-4674.582144919942,-10414.097808158816,-9416.9261824093,-6656.921180652729,-14338.61891973967,0.0
2074.8477143758823,-154.79245687473576,1153.0716144360222,-4677.1663858140655,-10415.312520468498,-9416.664185636622,-6657.504718919144,-14359.221393227383,0.0
2073.728273619902,-153.9350128914321,1154.8817739563297,-4677.1663858140655,-10416.086601842313,-9416.878546632448,-6657.921531966584,-14372.452230247527,0.0
2074.0259972252156,-151.62467771419722,1157.3231075199028,-4676.90438904139,-10415.51497252011,-9417.545447508352,-6659.231515829963,-14374.560113373149,0.0
2075.0739843159204,-150.7195979540434,1158.0376441726557,-4676.594756491863,-10415.443518854836,-9415.34229282903,-6657.814351468671,-14358.066225638766,0.0
2074.7286249337562,-152.4106680322256,1154.6435950720788,-4679.631537266063,-10418.468390684824,-9413.734585360335,-6655.563561012498,-14344.740117064923,0.0
2074.549990770568,-154.25655438517097,1153.0716144360222,-4679.941169815589,-10417.360858873057,-9411.864881118965,-6651.943241971883,-14325.95971204173,0.0
2076.7174186172524,-153.0180241870657,1154.822229235267,-4680.881976408382,-10417.539493036244,-9412.972412930732,-6652.086149302433,-14310.156543071673,0.0
2077.8011325405946,-151.30313622045838,1155.381949613257,-4681.822783001173,-10418.932839509114,-9412.341238887466,-6653.062682727863,-14303.14217493048,0.0
2076.8603259478027,-150.1598775760535,1155.7511268838462,-4681.298789455821,-10419.33774361234,-9410.804985084047,-6648.358649763905,-14314.824849202992,0.0
2076.4316039561513,-150.3027849066041,1156.9301123608886,-4679.071816888074,-10417.372767817269,-9409.352093890115,-6644.0595209031735,-14335.82031784972,0.0
2076.1934250719,-150.66005323298063,1158.0614620610809,-4677.380746809892,-10416.2652360055,-9411.162253410424,-6643.952340405262,-14355.946433568932,0.0
2073.513912624076,-151.30313622045838,1157.6803758462793,-4676.213670277061,-10415.098159472673,-9413.091502372858,-6647.417843171113,-14368.522278657385,0.0
2073.037554855574,-148.3139912231081,1159.2880833149736,-4672.450443905896,-10410.953846886703,-9416.878546632448,-6661.339398955585,-14376.405999726094,0.0
2074.121268778916,-149.36197831381259,1158.5259108853704,-4672.998255339672,-10409.191323143246,-9417.188179181974,-6667.317688950286,-14369.33208686384,0.0
2076.1457892950502,-152.22012492482477,1156.4894814250242,-4676.189852388636,-10413.788175609292,-9417.73599061575,-6663.3520105275065,-14351.96884620194,0.0
2077.5153178794935,-152.3630322553754,1157.0611107472268,-4675.522951512734,-10414.776617978932,-9420.67749983625,-6667.7106841093,-14334.831875480078,0.0
2077.110413776267,-152.1843980921871,1157.7280116231295,-4674.844141692618,-10410.965755830917,-9417.700263783114,-6669.270755801144,-14320.42205298289,0.0
2072.751740194473,-152.6964826933268,1156.680024532425,-4675.5824962337965,-10410.930028998278,-9416.41409780816,-6669.282664745358,-14314.253219880791,0.0
2072.9780101345114,-151.7318582121102,1157.9780994515932,-4675.999309281236,-10413.573814613466,-9417.700263783114,-6665.37653104364,-14321.851126288399,0.0
2073.7520915083273,-152.58930219541386,1156.7514781977004,-4677.821377745756,-10414.693255369446,-9417.974169500003,-6658.9695190572875,-14338.714191293371,0.0
2072.346836091246,-150.29087596239154,1157.5374685157287,-4679.702990931339,-10415.014796863183,-9414.723027729977,-6658.755158061462,-14360.757647030803,0.0
2072.64455969656,-150.24324018554134,1157.4064701293908,-4680.762886966257,-10418.194484967935,-9420.653681947828,-6664.971626940413,-14375.917733013379,0.0
2072.9780101345114,-152.0653086500616,1155.7630358280585,-4678.035738741582,-10414.002536605116,-9419.974872127712,-6665.209805824664,-14386.600055972038,0.0
2072.7636491386857,-151.7794939889604,1155.9059431586093,-4677.904740355243,-10413.669086167165,-9418.831613483306,-6657.707170970757,-14377.04908271357,0.0
2073.120917465062,-149.82642713810205,1155.1794975616438,-4679.3814494376,-10413.954900828268,-9418.47434515693,-6656.730637545329,-14355.720163628892,0.0
2075.1573469254085,-151.922401319511,1153.8576047540505,-4680.441345472517,-10416.62250433188,-9420.653681947828,-6664.233272399236,-14331.283010104738,0.0
2077.074686943629,-153.60156245348068,1151.6068142978784,-4681.596513061134,-10419.159109449152,-9422.047028420695,-6671.080915321451,-14318.754800793135,0.0
2079.2302058461005,-152.9465705217904,1150.7731882029998,-4680.739069077831,-10417.33704098463,-9418.676797208544,-6664.530996004549,-14312.597876635247,0.0
2078.3251260859465,-148.93325632216076,1156.5966619229373,-4678.154828183707,-10415.348247301135,-9415.116022888991,-6657.992985631859,-14324.578274513073,0.0
2077.944039871145,-151.44604355100898,1158.5140019411579,-4676.594756491863,-10413.847720330354,-9415.735287988044,-6659.267242662601,-14345.62137893665,0.0
2077.5153178794935,-152.0891265384867,1157.26356279884,-4676.844844320327,-10414.335987043069,-9415.53283593643,-6658.421707623511,-14368.16501033101,0.0
2076.6936007288273,-150.52905484664257,1157.9661905073806,-4678.083374518433,-10414.943343197909,-9416.545096194497,-6658.243073460322,-14383.753818305237,0.0
2076.538784454064,-150.8386873961689,1158.883179211747,-4677.964285076306,-10413.430907282915,-9414.484848845725,-6657.445174198081,-14387.957675612268,0.0
2077.0270511667786,-151.35077199730858,1158.5735466622207,-4677.79755985733,-10411.573111985756,-9412.281694166402,-6656.909271708517,-14373.30967423083,0.0
2079.4207489535015,-149.96933446865268,1157.3588343525405,-4680.107895034565,-10416.122328674952,-9414.258578905687,-6659.6126020447655,-14353.659916280123,0.0
2080.7188238726694,-152.19630703639967,1154.3339625225526,-4682.858861147665,-10417.896761362621,-9415.67574326698,-6660.779678577595,-14332.533449247056,0.0
2079.4207489535015,-155.1259073126872,1151.4996337999655,-4684.204571843684,-10418.563662238523,-9415.175567610055,-6661.87530144515,-14321.327132743047,0.0
2078.718121244961,-155.01872681477423,1150.9637313104006,-4683.228038418254,-10416.705866941365,-9412.960503986518,-6657.3856294770185,-14316.646917667515,0.0
2078.2774903090967,-153.26811201552925,1154.083874694089,-4680.322256030391,-10414.752800090508,-9412.877141377032,-6655.861284617812,-14329.853936799233,0.0
2077.92022198272,-154.29228121780864,1154.7269576815668,-4681.965690331724,-10417.896761362621,-9418.212348384253,-6657.218904258043,-14349.87287202053,0.0
2078.753848077599,-153.22047623867905,1155.834489493334,-4681.727511447472,-10417.325132040418,-9417.545447508352,-6655.766013064112,-14370.35625606612,0.0
2079.349295288226,-153.1132957407661,1155.8463984375464,-4681.953781387511,-10416.896410048768,-9418.47434515693,-6659.052881666776,-14384.05154191055,0.0
2079.2540237345256,-153.2323851828916,1154.6197771836537,-4680.917703241019,-10416.086601842313,-9421.18958443739,-6667.436778392412,-14387.981493500693,0.0
2079.3731131766513,-151.74376715632278,1157.3231075199028,-4677.952376132094,-10414.574165927319,-9420.653681947828,-6670.628375441374,-14375.667645184916,0.0
2080.8021864821576,-151.46986143943408,1157.4660148504533,-4678.381098123746,-10414.038263437755,-9418.652979320117,-6666.102976640605,-14356.577607612197,0.0
2082.290804508726,-153.17284046182886,1154.5245056299534,-4680.393709695666,-10415.288702580072,-9417.950351611578,-6664.233272399236,-14339.166731173447,0.0
2083.4459720973437,-154.50664221363454,1152.6428924443703,-4682.2276871044,-10418.492208573249,-9419.427060693934,-6663.780732519159,-14324.209097242485,0.0
2085.2204047850137,-152.3630322553754,1153.000160770747,-4681.870418778023,-10416.896410048768,-9418.105167886342,-6663.661643077033,-14317.635360037155,0.0
2080.6473702073945,-152.32730542273777,1151.404362246265,-4684.728565389035,-10418.504117517461,-9419.808146908736,-6664.757265944588,-14333.331348509297,0.0
2078.0393114248454,-151.20786466675798,1153.416973818186,-4683.549579911993,-10418.444572796398,-9420.260686788813,-6662.220660827314,-14349.432241084667,0.0
2077.086595887841,-150.96968578250693,1155.381949613257,-4680.858158519956,-10417.420403594118,-9420.796589278376,-6661.946755110425,-14367.402837901405,0.0
2074.2760850536797,-154.9591820937115,1153.178794933935,-4683.752031963607,-10419.575922496591,-9420.832316111015,-6664.018911403409,-14383.872907747364,0.0
2074.097450890491,-156.8646131677196,1148.5581245794654,-4688.76569747709,-10423.839324524684,-9420.034416848774,-6663.697369909671,-14387.63613411853,0.0
2078.4918513049224,-155.09018048004953,1148.0579489225383,-4689.766048790944,-10422.755610601344,-9417.509720675713,-6660.124686645905,-14375.036471141651,0.0
2081.3261800275095,-154.76863898631066,1149.4632043396193,-4686.38390863458,-10418.206393912147,-9415.116022888991,-6659.6126020447655,-14358.006680917702,0.0
2079.801835168303,-154.24464544095844,1150.6302808724492,-4683.966392959432,-10419.063837895452,-9419.141246032832,-6662.470748655777,-14341.012617526392,0.0
2079.194479013463,-157.11470099618316,1147.236231771872,-4686.729268016744,-10419.671194050292,-9421.237220214241,-6662.38738604629,-14330.592291340412,0.0
2081.6239036328234,-156.5549806181933,1149.3798417301314,-4685.050106882774,-10415.75315140436,-9417.533538564137,-6661.577577839836,-14322.875295490678,0.0
2082.016898791838,-156.07862284969127,1151.3686354136273,-4684.3355702300205,-10418.563662238523,-9419.867691629799,-6661.101220071335,-14332.021364645916,0.0
2083.4816989299816,-154.12555599883294,1152.7977087191334,-4683.573397800417,-10418.789932178563,-9422.499568300771,-6664.757265944588,-14352.028390923002,0.0
2081.8978093497117,-150.12415074341584,1155.119952840581,-4682.489683877076,-10415.729333515937,-9419.903418462434,-6664.447633395061,-14375.215105304838,0.0
2079.611292060902,-151.58895088155958,1152.6905282212206,-4684.7523832774605,-10416.003239232827,-9418.557707766418,-6661.041675350271,-14386.504784418337,0.0
2079.0753895713374,-152.88702580072766,1152.0474452337428,-4685.2406499901745,-10417.861034529984,-9417.16436129355,-6662.2563876599515,-14392.816524850989,0.0
2079.0396627387,-152.74411847017703,1154.9651365658176,-4681.751329335898,-10414.300260210432,-9412.365056775892,-6657.945349855008,-14382.515288107132,0.0
2077.2175942741796,-152.0414907616365,1155.6082195532954,-4681.536968340071,-10413.96680977248,-9414.032308965649,-6657.861987245521,-14366.34294186649,0.0
2078.0988561459085,-150.278967018179,1156.8824765840384,-4681.548877284284,-10415.08625052846,-9415.640016434343,-6662.38738604629,-14342.48932660875,0.0
2077.9678577595705,-152.1129444269118,1154.2505999130647,-4685.478828874427,-10420.111824986156,-9420.058234737198,-6662.423112878927,-14331.235374327889,0.0
2075.109711148558,-157.99596286791194,1149.5822937817447,-4689.730321958306,-10423.92268713417,-9421.88030320172,-6663.661643077033,-14328.472499270576,0.0
2077.729678875319,-154.11364705462037,1154.667412960504,-4684.65711172376,-10417.086953156168,-9416.116374202844,-6659.326787383665,-14339.714542607224,0.0
2079.8613798893657,-149.7430645286142,1158.621182439071,-4680.989156906295,-10414.240715489368,-9415.711470099617,-6658.600341786699,-14355.410531079368,0.0
2080.0281051083416,-150.87441422880653,1156.7514781977004,-4682.549228598138,-10414.026354493542,-9417.950351611578,-6663.340101583294,-14377.203898988335,0.0
2078.765757021811,-150.17178652026604,1156.7276603092753,-4682.656409096052,-10413.264182063938,-9415.53283593643,-6662.38738604629,-14391.64944831816,0.0
2077.396228437368,-145.01521367623155,1158.7164539927712,-4679.702990931339,-10410.0964029034,-9413.567860141358,-6660.743951744958,-14397.282378930695,0.0
2077.5034089352807,-146.80155530811416,1156.4061188155365,-4681.084428459994,-10410.84666638879,-9413.651222750848,-6658.9337922246505,-14386.159425036174,0.0
2080.123376662042,-149.40961409066279,1155.3938585574695,-4681.66796672641,-10410.525124895054,-9413.817947969823,-6656.063736669425,-14364.139787187165,0.0
2081.7787199075865,-144.76512584776796,1161.2768769984696,-4677.940467187881,-10410.60848750454,-9411.019346079873,-6654.68229914077,-14342.001059896034,0.0
2084.1366908616715,-144.13395180450277,1163.277579626178,-4677.571289917292,-10410.108311847613,-9409.995176877594,-6656.182826111551,-14327.162515407197,0.0
2081.111819031684,-145.3367551699704,1161.133969667919,-4680.703342245192,-10413.430907282915,-9412.067333170578,-6660.303320809093,-14322.958658100164,0.0
2075.4907973633594,-147.95672289673158,1156.2870293734109,-4684.430841783722,-10417.479948315182,-9414.4610309573,-6663.935548793921,-14339.607362109313,0.0
2076.526875509852,-145.1462120625696,1159.5977158644998,-4681.846600889598,-10415.312520468498,-9414.508666734151,-6661.256036346098,-14363.282343203862,0.0
2078.741939133386,-140.84708320183876,1165.8380026318766,-4676.749572766626,-10411.835108758432,-9413.794130081396,-6659.588784156341,-14383.277460536736,0.0
2077.5034089352807,-140.50172381967477,1168.2197914743867,-4672.962528507035,-10407.178711571325,-9409.864178491254,-6651.490702091806,-14393.70969566693,0.0
2076.121971406625,-137.64357720866255,1168.2793361954496,-4672.140811356369,-10404.308656016101,-9410.590624088221,-6661.089311127122,-14397.461013093884,0.0
2076.80078122674,-133.2491767942313,1168.37460774915,-4674.0343334861645,-10404.749286951965,-9412.86523243282,-6666.960420623909,-14385.385343662358,0.0
2078.0393114248454,-132.9157263562799,1170.5777624284717,-4671.86690563948,-10402.569950161069,-9411.15034446621,-6663.447282081207,-14367.200385849792,0.0
2079.0992074597625,-136.11923234945607,1174.81734656814,-4667.043783233397,-10399.628440940569,-9408.077836859373,-6657.564263640206,-14345.62137893665,0.0
2080.385373434718,-141.58543774301688,1169.6845916125305,-4670.592648608737,-10404.689742230901,-9410.078539487082,-6659.207697941539,-14330.842379168875,0.0
2081.8144467402244,-142.80015005269706,1167.683888984822,-4670.378287612911,-10403.79657141496,-9410.292900482907,-6660.815405410232,-14325.614352659564,0.0
2081.0165474779833,-144.86039740146836,1164.92101392751,-4673.272161056561,-10405.297098385743,-9411.352796517825,-6660.24377608803,-14341.548520015958,0.0
2078.872937519724,-148.4092627768085,1160.3360704056781,-4680.50089019358,-10411.906562423708,-9415.449473326942,-6666.17443030588,-14359.793022549584,0.0
2079.5279294514144,-148.4568985536587,1160.681429787842,-4681.548877284284,-10413.669086167165,-9415.473291215367,-6663.876004072858,-14379.597596775058,0.0
2080.1948303273175,-149.29052464853729,1158.8950881559597,-4683.192311585616,-10413.287999952365,-9412.912868209669,-6659.576875212128,-14394.17414449122,0.0
2078.837210687086,-150.3027849066041,1156.3465740944737,-4686.181456582966,-10415.693606683299,-9414.580120399425,-6658.4812523445735,-14400.771699584973,0.0
2075.1573469254085,-152.51784853013856,1153.2502485992104,-4688.456064927564,-10418.015850804746,-9416.366462031308,-6663.459191025419,-14391.947171923472,0.0
2077.3128658278797,-150.6957800656183,1154.7745934584168,-4686.300546025092,-10415.610244073812,-9415.651925378555,-6669.48511679697,-14373.345401063469,0.0
2080.623552318969,-150.33851173924174,1156.3346651502611,-4683.894939294157,-10414.288351266217,-9413.817947969823,-6662.43502182314,-14352.314205584104,0.0
2082.648072835103,-151.68422243526,1155.5248569438077,-4684.121209234196,-10415.264884691647,-9415.616198545917,-6660.339047641731,-14337.928200975342,0.0
2080.6473702073945,-152.88702580072766,1154.6078682394414,-4686.2648191924545,-10414.324078098856,-9415.640016434343,-6660.624862302832,-14334.486516097915,0.0
2078.956300129212,-152.83939002387743,1155.8463984375464,-4685.347830488088,-10414.562256983107,-9417.152452349337,-6665.93625142163,-14350.01577935108,0.0
2077.6344073216187,-154.38755277150904,1153.178794933935,-4688.134523433825,-10418.099213414234,-9419.069792367558,-6668.675308590517,-14367.474291566681,0.0
2079.5279294514144,-152.27966964588757,1154.2744178014898,-4687.634347776898,-10416.420052280264,-9415.425655438517,-6664.590540725611,-14384.027724022126,0.0
2079.337386344014,-151.71994926789765,1154.345871466765,-4687.443804669497,-10415.586426185386,-9413.817947969823,-6660.386683418581,-14396.258209728416,0.0
2074.41899238423,-154.5900048231224,1150.2491946576474,-4691.981112414478,-10422.064891837013,-9422.154208918608,-6665.019262717263,-14403.177306315909,0.0
2073.644911010414,-155.9714423517783,1149.6894742796576,-4692.73137589987,-10422.791337433979,-9423.65473588939,-6666.281610803794,-14394.745773813422,0.0
2076.324423458238,-154.16128283147057,1152.5595298348824,-4690.0756813404705,-10420.731090085208,-9421.141948660541,-6665.447984708916,-14375.417557356452,0.0
2079.7303815030277,-151.38649882994622,1154.3815982994029,-4689.730321958306,-10419.433015166042,-9418.33143782638,-6660.648680191257,-14348.836793874038,0.0
2080.6950059842443,-150.64814428876807,1153.464609595036,-4690.409131778422,-10420.754907973633,-9419.129337088621,-6658.588432842485,-14337.701931035304,0.0
2082.326531341364,-151.13641100148266,1154.036238917239,-4688.777606421303,-10418.551753294312,-9419.605694857122,-6660.589135470194,-14339.9765393799,0.0
2085.6014909998153,-150.62432640034297,1154.500687741528,-4688.134523433825,-10415.622153018025,-9418.867340315945,-6663.375828415931,-14349.396514252028,0.0
2081.3380889717223,-150.7195979540434,1154.8698650121173,-4687.741528274811,-10415.765060348574,-9419.748602187674,-6668.341858152565,-14367.236112682429,0.0
2077.0270511667786,-151.24359149939562,1154.560232462591,-4688.182159210675,-10418.134940246873,-9419.522332247634,-6667.829773551425,-14386.647691748887,0.0
2077.789223596382,-150.57669062349277,1155.9773968238846,-4685.72891670289,-10414.836162699996,-9417.021453962998,-6664.126091901322,-14395.924759290465,0.0
2076.086244573987,-153.1609315176163,1154.7984113468422,-4686.729268016744,-10414.109717103029,-9418.71252404118,-6663.018560089555,-14400.914606915523,0.0
2073.0256459113616,-152.85129896808996,1153.7266063677125,-4688.503700704414,-10418.21830285636,-9420.820407166802,-6664.792992777225,-14389.672563578875,0.0
2072.680286529198,-149.00470998743606,1156.4061188155365,-4686.276728136667,-10417.075044211955,-9417.295359679887,-6661.613304672474,-14369.99898773974,0.0
2074.6571712684813,-153.8635592261568,1154.6197771836537,-4686.586360686193,-10415.657879850662,-9416.473642529221,-6661.1607647923975,-14348.670068655063,0.0
2076.538784454064,-153.67301611875598,1154.8341381794796,-4684.9786532174985,-10411.91847136792,-9412.841414544393,-6663.483008913845,-14335.165325918031,0.0
2077.0508690552037,-152.9942062986406,1153.5598811487366,-4688.622790146539,-10416.95595476983,-9414.175216296198,-6659.148153220476,-14332.545358191268,0.0
2077.717769931107,-153.43483723450495,1152.202261508506,-4691.75484247444,-10420.254732316705,-9417.700263783114,-6661.708576226174,-14343.203863261502,0.0
2078.6585765238983,-154.5185511578471,1151.0113670872508,-4692.957645839908,-10421.707623510638,-9422.237571528096,-6666.364973413281,-14361.138733245603,0.0
2078.6109407470476,-154.89963737264873,1150.8565508124877,-4693.029099505183,-10421.171721021072,-9421.499216986918,-6665.567074151041,-14381.419665239579,0.0
2076.7055096730396,-154.6852763768228,1151.320999636777,-4692.933827951483,-10421.290810463199,-9419.260335474959,-6664.280908176085,-14394.769591701846,0.0
2075.2645274233214,-154.5185511578471,1149.9395621081214,-4692.743284844082,-10419.873646101903,-9417.140543405123,-6659.743600431103,-14403.41548520016,0.0
2075.0501664274952,-153.2562030713167,1151.4639069673278,-4689.992318730983,-10416.932136881403,-9414.996933446864,-6656.849726987454,-14394.852954311335,0.0
2074.430901328443,-152.30348753431267,1151.749721628429,-4690.802126937437,-10420.766816917845,-9419.700966410823,-6659.922234594292,-14376.608451777707,0.0
2073.2995516282504,-152.5773932512013,1153.0120697149594,-4691.719115641803,-10421.350355184262,-9420.534592505703,-6662.184933994677,-14355.18426113933,0.0
2076.4316039561513,-150.61241745613043,1156.6681155882125,-4688.527518592839,-10416.777320606641,-9415.592380657492,-6657.742897803395,-14336.951667549913,0.0
2079.516020507202,-150.7910516193187,1155.774944772271,-4685.82418825659,-10410.596578560328,-9411.102708689361,-6655.1229300766345,-14330.937650722575,0.0
2076.931779613078,-151.62467771419722,1156.4299367039614,-4685.955186642928,-10411.91847136792,-9414.377668347812,-6661.791938835662,-14343.275316926778,0.0
2075.8480656897364,-151.16022888990776,1157.287380687265,-4686.38390863458,-10413.609541446102,-9415.02075133529,-6661.720485170386,-14360.388469760213,0.0
2075.5503420844225,-149.32625148117495,1157.0849286356517,-4687.69389249796,-10414.586074871533,-9414.92547978159,-6658.552706009848,-14379.287964225532,0.0
2076.538784454064,-149.96933446865268,1155.6558553301456,-4689.635050404606,-10416.158055507589,-9415.592380657492,-6657.087905871705,-14392.483074413038,0.0
2076.6340560077647,-150.6957800656183,1154.9175007889676,-4689.98040978677,-10415.729333515937,-9412.067333170578,-6655.52783417986,-14399.092538451003,0.0
2074.4904460495054,-150.99350367093203,1153.869513698263,-4692.147837633454,-10417.43231253833,-9414.103762630924,-6652.705414401486,-14390.708641725367,0.0
2074.907259096945,-152.75602741438956,1152.9763428823217,-4692.0763839681795,-10416.68204905294,-9413.61549591821,-6653.812946213253,-14374.28620765626,0.0
2077.074686943629,-153.76828767245638,1153.0358876033845,-4690.802126937437,-10414.621801704168,-9413.24631864762,-6657.992985631859,-14356.625243389046,0.0
2077.6820430984694,-152.19630703639967,1154.0124210288136,-4691.504754645976,-10416.777320606641,-9416.688003525047,-6657.230813202255,-14344.27566824063,0.0
2077.789223596382,-148.4092627768085,1157.501741683091,-4688.444155983351,-10413.621450390316,-9416.366462031308,-6656.968816429579,-14337.201755378377,0.0
2077.3128658278797,-148.74271321475996,1157.3588343525405,-4688.348884429651,-10412.871186904924,-9417.67644589469,-6664.507178116124,-14353.397919507446,0.0
2078.956300129212,-149.54061247700085,1157.0372928588015,-4687.896344549574,-10412.871186904924,-9417.902715834727,-6667.960771937764,-14373.655033612995,0.0
2078.503760249135,-150.9339589498693,1155.2152243942814,-4688.7537885328775,-10414.919525309484,-9418.879249260155,-6668.175132933589,-14393.34051839634,0.0
2075.193073758046,-147.9924497293692,1156.7395692534878,-4687.110354231546,-10413.323726785002,-9418.00989633264,-6666.650788074383,-14403.534574642284,0.0
2072.346836091246,-149.88597185916484,1155.1794975616438,-4689.075330026616,-10413.16891051024,-9418.795886650669,-6666.793695404934,-14408.27433443888,0.0
2073.4305500145883,-153.22047623867905,1152.1188988990182,-4692.552741736682,-10416.360507559202,-9419.724784299247,-6661.756212003025,-14397.782554587622,0.0
2072.9422833018734,-155.62608296961432,1147.9984042014755,-4696.708963266861,-10421.350355184262,-9422.86874557136,-6665.043080605688,-14377.56116731471,0.0
2073.120917465062,-153.1371136291912,1151.5234516883904,-4694.493899643327,-10421.06454052316,-9423.14265128825,-6668.115588212527,-14353.124013790557,0.0
2073.1685532419124,-153.69683400718108,1150.5588272071739,-4694.815441137066,-10421.874348729612,-9424.250183100017,-6666.49597179962,-14342.846594935125,0.0
2072.6088328639225,-153.2085672944665,1150.8446418682752,-4693.898452432699,-10419.909372934542,-9423.666644833602,-6671.735907253143,-14343.489677922602,0.0
2072.5254702544344,-151.46986143943408,1150.8327329240626,-4694.50580858754,-10418.420754907975,-9422.523386189197,-6668.87776064213,-14357.935227252427,0.0
2074.3475387189546,-149.80260924967695,1155.036590231093,-4691.373756259639,-10416.431961224476,-9420.415503063576,-6664.828719609863,-14376.239274507117,0.0
2074.0140882810033,-152.85129896808996,1152.2737151737813,-4694.04135976325,-10419.159109449152,-9421.65403326168,-6664.507178116124,-14397.330014707546,0.0
2072.0491124859323,-155.35217725272565,1149.4989311722568,-4697.173412091151,-10420.754907973633,-9423.392739116713,-6665.876706700567,-14412.073287642683,0.0
2073.7163646756894,-151.74376715632278,1153.1907038781478,-4694.851167969703,-10418.111122358447,-9420.034416848774,-6665.793344091079,-14413.08554790075,0.0
2076.2529697929626,-152.00576392899887,1153.1192502128722,-4693.922270321124,-10415.37206518956,-9417.72408167154,-6663.518735746482,-14399.83089299218,0.0
2076.967506445716,-153.62538034190578,1150.5588272071739,-4695.601431455095,-10419.397288333403,-9422.082755253332,-6663.971275626559,-14385.099529001256,0.0
2075.383616865447,-156.1143496823289,1145.3188917536515,-4700.615096968578,-10425.851936096604,-9425.488713298122,-6664.435724450849,-14368.355553438409,0.0
2075.240709534896,-154.73291215367303,1146.7003292823074,-4698.352397568193,-10422.719883768705,-9422.904472404,-6662.2921144925895,-14353.016833292644,0.0
2077.289047939455,-150.36232962766684,1152.7738908307085,-4693.3982767757725,-10416.58677749924,-9420.832316111015,-6663.268647918018,-14346.895635967394,0.0
2078.718121244961,-147.01591630394006,1157.346925408328,-4688.360793373863,-10413.418998338702,-9419.367515972872,-6666.043431919543,-14357.01823854806,0.0
2078.694303356536,-146.0870186553611,1158.0376441726557,-4688.372702318075,-10413.74053983244,-9418.426709380079,-6664.614358614037,-14375.060289030076,0.0
2075.4669794749343,-148.635532716847,1156.7514781977004,-4690.766400104799,-10414.550348038894,-9417.795535336814,-6662.685109651604,-14398.211276579274,0.0
2071.9895677648697,-150.8386873961689,1155.7392179396336,-4690.897398491136,-10412.716370630162,-9416.187827868122,-6661.863392500938,-14408.572058044194,0.0
2072.5731060312846,-150.7910516193187,1154.4649609088906,-4693.124371058884,-10415.75315140436,-9418.295710993742,-6662.244478715739,-14412.24001286166,0.0
2073.0613727439995,-148.290173334683,1155.2985870037692,-4691.576208311252,-10414.550348038894,-9416.354553087096,-6659.8031451521665,-14403.201124204334,0.0
2074.4070834400172,-145.47966250052102,1157.0611107472268,-4690.051863452046,-10413.764357720866,-9413.698858527696,-6656.7068196569035,-14385.837883542434,0.0
2076.6102381193396,-145.03903156465665,1157.739920567342,-4690.552039108973,-10414.383622819918,-9415.318474940603,-6655.623105733561,-14364.937686449408,0.0
2078.3846708070096,-147.52800090507975,1156.549026146087,-4690.087590284683,-10413.64526827874,-9415.461382271154,-6656.468640772652,-14348.741522320339,0.0
2079.635109949327,-147.14691469027812,1156.9062944724635,-4689.218237357167,-10411.930380312133,-9413.889401635099,-6654.21785031648,-14344.561482901732,0.0
2079.170661125038,-146.12274548799874,1156.465663536599,-4691.778660362866,-10415.705515627513,-9417.104816572486,-6659.02906377835,-14358.09004352719,0.0
2075.216891646471,-143.58614037072542,1160.5385224572915,-4689.23014630138,-10410.358399676077,-9413.234409703407,-6661.256036346098,-14378.39479340959,0.0
2072.9422833018734,-146.00365604587324,1159.0260865422974,-4688.872877975003,-10409.834406130723,-9412.698507213843,-6660.672498079683,-14401.1766036882,0.0
2073.0256459113616,-145.1223941741445,1160.4075240709535,-4687.979707159061,-10409.453319915923,-9414.04421790986,-6662.780381205304,-14415.205339970586,0.0
2074.4785371052926,-140.52554170809987,1164.4327472147957,-4684.371297062658,-10407.357345734514,-9414.675391953126,-6665.638527816316,-14414.657528536807,0.0
2075.9790640760743,-139.70382455743385,1163.9921162789312,-4684.597567002697,-10407.952792945141,-9413.365408089747,-6656.40909605159,-14402.319862332604,0.0
2076.80078122674,-139.858640832197,1161.2887859426821,-4687.574803055835,-10411.21584365938,-9412.936686098094,-6659.672146765828,-14385.480615216058,0.0
2076.681691784615,-143.27650782119912,1158.5497287737956,-4689.253964189805,-10411.144389994106,-9407.291846541344,-6653.586676273215,-14364.747143342007,0.0
2077.6224983774064,-144.90803317831856,1156.3584830386862,-4690.02804556362,-10411.382568878356,-9405.815137458989,-6654.753752806045,-14350.480228175371,0.0
2079.611292060902,-144.30067702347847,1156.9301123608886,-4689.253964189805,-10411.53738515312,-9409.756997993343,-6655.789830952536,-14344.192305631144,0.0
2077.086595887841,-146.44428698173763,1155.774944772271,-4689.218237357167,-10412.06137869847,-9413.85367480246,-6659.171971108901,-14355.732072573104,0.0
2074.9429859295824,-150.66005323298063,1154.9651365658176,-4690.706855383735,-10413.68099511138,-9413.031957651794,-6657.361811588594,-14374.572022317361,0.0
2074.752442822182,-150.4218743487296,1156.3227562060486,-4691.147486319601,-10415.133886305308,-9419.510423303422,-6663.816459351796,-14397.544375703372,0.0
2074.0736330020663,-147.46845618401701,1159.407172757099,-4687.431895725284,-10410.822848500366,-9418.938793981219,-6661.470397341924,-14411.847017702645,0.0
2071.930023043807,-146.84919108496436,1160.1336183540648,-4686.193365527179,-10408.36960599258,-9414.901661893166,-6659.231515829963,-14415.443518854836,0.0
2073.81163622939,-147.24218624397852,1158.2639141126942,-4688.884786919216,-10409.643863023322,-9416.247372589183,-6664.292817120298,-14403.594119363348,0.0
2076.3720592350887,-145.77738610583478,1158.5616377180081,-4688.467973871777,-10410.0011313497,-9416.771366134535,-6661.815756724088,-14385.563977825544,0.0
2077.979766703783,-145.83693082689754,1158.2758230569068,-4689.587414627756,-10411.561203041543,-9415.497109103791,-6659.302969495239,-14367.033660630817,0.0
2079.611292060902,-148.9451652663733,1155.3700406690446,-4692.862374286208,-10414.871889532633,-9416.449824640797,-6660.219958199606,-14355.255714804603,0.0
2079.69465467039,-150.6957800656183,1153.8576047540505,-4694.708260639153,-10416.193782340226,-9417.104816572486,-6660.839223298658,-14347.550627899083,0.0
2078.5156691933475,-149.0642547084988,1155.703491106996,-4691.885840860778,-10411.382568878356,-9413.401134922382,-6660.684407023895,-14359.804931493798,0.0
2077.4557731584305,-146.80155530811416,1158.7998166022592,-4687.348533115796,-10405.523368325781,-9409.911814268105,-6656.1351903347,-14378.25188607904,0.0
2075.871883578161,-146.7896463639016,1159.0737223191477,-4687.979707159061,-10407.226347348174,-9413.43686175502,-6658.9337922246505,-14397.282378930695,0.0
2075.53843314021,-146.82537319653926,1158.2520051684817,-4689.2420552455915,-10408.155244996755,-9414.508666734151,-6661.41085262086,-14409.893950851787,0.0
2074.7286249337562,-146.46810487016273,1159.6215337529252,-4686.705450128318,-10404.701651175114,-9412.400783608527,-6662.649382818966,-14413.538087780827,0.0
2077.6463162658315,-145.13430311835705,1160.4551598478038,-4684.692838556398,-10402.29604444418,-9409.566454885942,-6658.32643606981,-14398.28273024455,0.0
2081.6953572980988,-143.40750620753718,1161.2768769984696,-4687.777255107448,-10406.094997647982,-9410.483443590307,-6655.1229300766345,-14377.203898988335,0.0
2079.1349342924004,-146.98018947130242,1157.0730196914392,-4692.73137589987,-10412.251921805871,-9415.461382271154,-6658.207346627684,-14356.660970221685,0.0
2074.9906217064326,-148.79034899161016,1155.3224048921943,-4692.826647453569,-10411.561203041543,-9412.257876277978,-6660.208049255393,-14344.87111545126,0.0
2078.110765090121,-145.95602026902304,1157.6446490136416,-4692.910010063058,-10412.644916964886,-9413.00813976337,-6657.218904258043,-14342.096331449735,0.0
2079.1468432366128,-146.12274548799874,1159.0260865422974,-4692.624195401956,-10412.835460072287,-9412.448419385379,-6658.171619795047,-14355.10089852984,0.0
2079.2897505671635,-148.7069863821223,1155.143770729006,-4695.291798905569,-10414.895707421058,-9412.960503986518,-6656.849726987454,-14374.357661321535,0.0
2079.64701889354,-145.72975032898458,1155.2152243942814,-4694.601080141239,-10414.15735287988,-9413.067684484431,-6651.490702091806,-14393.352427340553,0.0
2080.063831940979,-141.28771413770312,1157.6565579578541,-4692.016839247117,-10411.12057210568,-9412.424601496954,-6654.015398264866,-14400.997969525011,0.0
2077.979766703783,-142.39524594947034,1158.6092734948584,-4690.182861838384,-10407.845612447229,-9412.996230819157,-6657.647626249694,-14402.700948547406,0.0
2076.8484170035904,-145.74165927319714,1161.848506320672,-4686.633996463043,-10404.713560119328,-9413.258227591834,-6659.088608499414,-14392.197259751936,0.0
2076.8841438362283,-147.9686318409441,1159.859712637176,-4690.849762714286,-10409.715316688598,-9417.200088126188,-6659.695964654254,-14376.882357494595,0.0
2079.4088400092887,-145.59875194264654,1160.502795624654,-4689.575505683543,-10408.762601151593,-9415.794832709107,-6655.6111967893485,-14355.89879779208,0.0
2078.5752139144106,-146.88491791760202,1158.6330913832833,-4690.968852156411,-10408.78641904002,-9415.48520015958,-6661.422761565073,-14344.942569116534,0.0
2079.492202618777,-148.83798476846036,1156.8348408071881,-4693.041008449396,-10410.51321595084,-9416.104465258632,-6664.018911403409,-14341.56042896017,0.0
2078.741939133386,-149.58824825385105,1155.3700406690446,-4695.20843629608,-10413.31181784079,-9417.021453962998,-6663.816459351796,-14356.160794564757,0.0
2076.1338803508374,-149.0880725969239,1154.9175007889676,-4695.696703008794,-10413.573814613466,-9418.200439440041,-6669.401754187483,-14374.441023931024,0.0
2075.7051583591856,-147.88526923145628,1155.7392179396336,-4692.374107573492,-10408.703056430531,-9413.829856914035,-6658.802793838312,-14392.649799632014,0.0
2077.8130414848074,-147.0397341923652,1155.3224048921943,-4694.005632930613,-10409.810588242299,-9414.056126854073,-6654.72993491762,-14404.594470677202,0.0
2077.0151422225663,-145.53920722158375,1155.9535789354593,-4692.826647453569,-10408.119518164116,-9410.697804586134,-6659.148153220476,-14411.751746148946,0.0
2077.8249504290197,-143.27650782119912,1159.3833548686741,-4689.253964189805,-10403.629846195985,-9406.553492000166,-6660.517681804919,-14400.604974365997,0.0
2080.0281051083416,-138.89401635098042,1164.2779309400325,-4687.277079450521,-10405.547186214206,-9408.030201082523,-6660.267593976456,-14380.53840336785,0.0
2080.075740885192,-141.847434515693,1160.3717972383158,-4689.8851382330695,-10406.654718025973,-9408.982916619527,-6656.944998541154,-14358.804580179944,0.0
2080.0400140525544,-144.43167540981656,1156.811022918763,-4693.565001994748,-10410.382217564502,-9413.37731703396,-6657.040270094855,-14345.883375709327,0.0
2082.802889109866,-147.0873699692154,1155.0008633984553,-4694.958348467617,-10411.203934715168,-9413.353499145533,-6656.849726987454,-14340.560077646314,0.0
2083.731786758445,-150.13605968762838,1157.0968375798643,-4692.207382354517,-10408.619693821043,-9407.87538480776,-6653.205590058414,-14357.351688986013,0.0
2079.8375620009406,-149.17143520641176,1157.8947368421052,-4694.493899643327,-10413.335635729214,-9411.745791676838,-6654.72993491762,-14379.70477727297,0.0
2077.0151422225663,-145.90838449217284,1158.1329157263563,-4694.934530579191,-10413.1331836776,-9413.115320261282,-6655.873193562024,-14399.86661982482,0.0
2075.6217957496974,-145.55111616579632,1155.4772211669574,-4696.423148605761,-10413.395180450278,-9413.329681257108,-6656.968816429579,-14412.311466526933,0.0
2078.3370350301593,-145.24148361627,1156.2155757081357,-4695.565704622456,-10412.347193359572,-9412.281694166402,-6655.623105733561,-14415.776969292787,0.0
2077.6105894331936,-145.49157144473355,1158.0971888937186,-4693.565001994748,-10410.632305392966,-9411.900607951602,-6654.456029200731,-14407.76224983774,0.0
2073.8949988388777,-147.6589992914178,1159.514353255012,-4689.897047177282,-10404.916012170941,-9410.542988311372,-6658.552706009848,-14390.67291489273,0.0
2073.680637843052,-147.19455046712832,1158.4068214432448,-4690.4924943879105,-10406.225996034322,-9412.448419385379,-6659.969870371142,-14370.403891842969,0.0
2075.6575225823353,-146.33710648382467,1157.9185547305303,-4692.921919007271,-10409.989222405487,-9415.425655438517,-6659.362514216302,-14358.435402909354,0.0
2078.158400866971,-146.32519753961213,1158.5497287737956,-4692.910010063058,-10409.477137804348,-9415.223203386902,-6660.577226525982,-14357.732775200815,0.0
2077.527226823706,-143.60995825915052,1161.0744249468564,-4689.575505683543,-10406.940532687075,-9414.961206614227,-6662.661291763178,-14369.856080409192,0.0
2076.836508059378,-147.0873699692154,1157.418379073603,-4692.36219862928,-10408.00042872199,-9413.19868287077,-6662.351659213652,-14387.326501569003,0.0
2077.2056853299673,-145.1938478394198,1159.252356482336,-4690.230497615234,-10404.582561732988,-9408.339833632048,-6660.541499693345,-14402.510405440005,0.0
2075.9790640760743,-143.96722658552707,1160.0859825772147,-4691.338029427001,-10406.023543982708,-9410.280991538695,-6662.542202321053,-14417.694309311008,0.0
2075.990973020287,-146.49192275858783,1158.906997100172,-4692.600377513531,-10407.726523005102,-9414.210943128837,-6663.304374750656,-14420.37382175883,0.0
2074.871532264307,-149.32625148117495,1155.2152243942814,-4695.95869978147,-10410.013040293914,-9413.19868287077,-6662.637473874754,-14410.73948589088,0.0
