EEG 1,EEG 2,EEG 3,EEG 4,EEG 5,EEG 6,EEG 7,EEG 8,Trigger
2487.5879028944687,-7719.984994730292,-9077.342638188411,-10343.644494197366,-15582.686776903793,-15812.767579090274,-9216.83210175002,-22205.774647048667,0.0
2478.894373619307,-7736.717061348926,-9095.110782953538,-10356.78005966381,-15593.142829922414,-15817.959878766947,-9222.536486027831,-22219.184118231995,0.0
2481.014165689141,-7741.921269969811,-9099.576637033244,-10361.650817846743,-15593.166647810838,-15820.49648388422,-9220.107061408471,-22217.159597715865,0.0
2494.614179979874,-7736.181158859361,-9089.477852341,-10354.279181379175,-15590.55858902829,-15828.463567562418,-9221.869585151928,-22216.36169845362,0.0
2510.572165224692,-7721.8904258043,-9075.28239083964,-10343.251499038352,-15587.259811481412,-15818.198057651198,-9216.582013921556,-22212.681834691946,0.0
2502.1049058895683,-7724.700936638462,-9079.10516193187,-10347.693535229635,-15591.011128908367,-15817.566883607935,-9221.929129872991,-22209.28778559137,0.0
2485.58720026676,-7738.169952542857,-9090.954561423358,-10359.257120060021,-15599.907110235143,-15836.740283790139,-9235.13614900471,-22213.515460786824,0.0
2496.6387004960075,-7736.169249915149,-9086.750704116326,-10354.231545602324,-15589.546328770222,-15825.176698959755,-9229.765215164849,-22223.48324709273,0.0
2510.0243537909146,-7730.167142032023,-9080.331783185762,-10345.954829374601,-15581.114796267735,-15817.638337273207,-9220.61914600961,-22209.81177913672,0.0
2489.862511239066,-7733.799370016851,-9085.452629197158,-10353.04065118107,-15588.295889627905,-15824.962337963925,-9223.822652002786,-22208.5613399944,0.0
2487.6474476155313,-7733.037197587248,-9083.892557505314,-10352.552384468354,-15587.045450485588,-15821.627833584414,-9222.39357869728,-22205.83419176973,0.0
2506.5588510250623,-7727.5948100821115,-9080.820049898475,-10349.348878475179,-15588.41497907003,-15817.554974663723,-9219.392524755718,-22203.166588266115,0.0
2526.899327740099,-7725.15347651854,-9080.022150636234,-10343.168136428865,-15582.877320011195,-15811.457595226893,-9215.069578006562,-22200.463257929867,0.0
2495.1739003578637,-7723.724403213033,-9076.59237470302,-10341.084071191668,-15577.696929278734,-15812.696125425002,-9217.02264485742,-22207.572897624763,0.0
2484.205762738104,-7726.939818150422,-9076.247015320856,-10345.4784716061,-15583.830035548199,-15819.948672450442,-9218.677988102963,-22209.573600252468,0.0
2477.2747572064,-7735.418986429758,-9087.393787103805,-10356.220339285821,-15593.202374643475,-15824.140620813263,-9221.202684276026,-22212.955740408834,0.0
2483.7055870811773,-7739.170303856711,-9093.336350265867,-10359.971656712774,-15596.596423744053,-15824.259710255386,-9224.513370767116,-22214.51581210068,0.0
2491.0891324929585,-7736.264521468848,-9092.026366402486,-10354.636449705551,-15593.59536980249,-15822.378097069804,-9216.998826968995,-22212.550836305607,0.0
2497.6509607540743,-7734.156638343227,-9091.597644410835,-10355.243805860391,-15593.666823467765,-15823.128360555196,-9222.798482800506,-22209.49023764298,0.0
2492.530114742677,-7731.608124281741,-9085.655081248771,-10350.968494888086,-15589.117606778571,-15823.48562888157,-9236.005501932224,-22209.252058758728,0.0
2492.9112009574787,-7735.168898601295,-9084.57136732543,-10349.17024431199,-15588.438796958455,-15825.700692505106,-9231.087107972442,-22207.394263461574,0.0
2493.9830059366086,-7732.477477209258,-9084.20219005484,-10349.980052518444,-15588.534068512155,-15824.974246908138,-9221.655224156102,-22207.227538242594,0.0
2507.3448413430906,-7715.49532276216,-9070.876081480996,-10336.475309781412,-15574.755420058234,-15808.801900667497,-9210.413180819454,-22192.460447419035,0.0
2504.736782560542,-7722.735960843392,-9079.498157090882,-10343.644494197366,-15580.51934905711,-15811.231325286855,-9215.71266099404,-22191.61491237994,0.0
2487.171089847029,-7739.337029075687,-9093.896070643856,-10358.506856574631,-15593.69064135619,-15823.473719937358,-9228.919680125759,-22203.238041931392,0.0
2486.170738533175,-7734.251909896928,-9086.333891068887,-10352.326114528316,-15587.962439189954,-15819.710493566192,-9228.08605403088,-22205.405469778074,0.0
2486.1826474773875,-7738.086589933369,-9091.466646024497,-10357.61368575869,-15592.190114385408,-15821.949375078151,-9225.57326680203,-22214.718264152292,0.0
2494.8880856967626,-7736.324066189912,-9091.597644410835,-10355.982160401569,-15591.475577732655,-15822.41382390244,-9231.623010462008,-22211.657665489667,0.0
2503.7721580793254,-7734.31145461799,-9089.573123894701,-10354.5888139287,-15591.832846059031,-15825.879326668293,-9236.029319820651,-22206.036643821342,0.0
2516.3956389446294,-7723.152773890831,-9075.258572951216,-10340.786347586354,-15579.542815631681,-15814.708736996921,-9220.654872842248,-22196.83102994504,0.0
2513.0730435093274,-7726.380097772431,-9078.17626428329,-10344.35903085012,-15584.0205786556,-15811.136053733157,-9216.915464359507,-22196.91439255453,0.0
2486.361281640576,-7733.358739080986,-9086.298164236248,-10350.28968506797,-15586.295187000196,-15806.68210859766,-9213.366598984167,-22196.449943730237,0.0
2479.3707313878085,-7732.727565037721,-9085.762261746684,-10351.397216879737,-15585.568741403229,-15815.185094765424,-9214.831399122311,-22203.523856592496,0.0
2510.202987954103,-7721.7832453063875,-9074.72267046165,-10338.118744082743,-15574.886418444572,-15803.40714893921,-9201.731560488504,-22191.912635985256,0.0
2496.221887448568,-7737.050511786877,-9090.371023156942,-10349.849054132106,-15585.47346984953,-15811.33850578477,-9212.604426554564,-22203.97639647257,0.0
2473.4043503373205,-7741.266278038121,-9094.28906580287,-10359.233302171595,-15592.047207054859,-15821.532562030712,-9220.726326507523,-22214.396722658552,0.0
2485.6110181551853,-7733.632644797875,-9082.725480972484,-10353.255012176895,-15585.61637718008,-15817.173888448919,-9213.997773027431,-22210.704949952662,0.0
2495.9122548990417,-7731.143675457452,-9079.414794481394,-10348.312800328687,-15582.210419135292,-15814.74446382956,-9212.902150159878,-22205.905645435003,0.0
2494.6499068125117,-7731.167493345877,-9082.582573641934,-10352.635747077842,-15591.058764685216,-15823.56899149106,-9223.632108895386,-22204.393209520007,0.0
2495.9241638432545,-7725.534562733341,-9077.295002411562,-10343.608767364729,-15584.449300647251,-15814.268106061056,-9218.296901888161,-22202.368689003873,0.0
2484.801209948732,-7725.653652175466,-9079.641064421432,-10341.477066350682,-15582.293781744778,-15816.042538748725,-9223.262931624797,-22210.51440684526,0.0
2484.241489570742,-7729.238244383444,-9083.880648561102,-10347.669717341209,-15579.709540850656,-15820.365485497885,-9229.455582615323,-22211.10985405589,0.0
2485.1822961635335,-7729.166790718169,-9082.499211032446,-10353.70755205697,-15584.925658415752,-15824.140620813263,-9226.597436004311,-22210.895493060063,0.0
2486.242192198451,-7729.404969602419,-9086.357708957314,-10356.327519783734,-15588.998517336444,-15819.972490338869,-9221.440863160276,-22207.822985453226,0.0
2495.245354023139,-7728.821431336005,-9086.131439017274,-10347.431538456958,-15582.520051684816,-15809.683162539222,-9214.974306452861,-22205.2387445591,0.0
2505.5942265438457,-7729.154881773956,-9086.059985351998,-10344.323304017482,-15570.623016416479,-15800.596638105048,-9210.044003548865,-22201.713697072188,0.0
2505.47513710172,-7729.250153327656,-9082.773116749335,-10349.194062200415,-15571.64718561876,-15810.481061801465,-9217.689545733323,-22199.927355440304,0.0
2501.3903692368153,-7726.904091317784,-9079.688700198283,-10351.540124210287,-15582.62723218273,-15819.079319522929,-9230.848929088192,-22206.40582109193,0.0
2489.5528786895397,-7727.880624743213,-9078.747893605492,-10342.155876170798,-15574.159972847607,-15808.837627500134,-9216.379561869942,-22210.395317403138,0.0
2486.730458911165,-7723.605313770908,-9075.341935560702,-10332.223816697531,-15565.883256619883,-15807.301373696715,-9213.640504701056,-22202.035238565924,0.0
2488.064260662971,-7728.059258906402,-9083.952102226378,-10345.14502116815,-15575.553319320476,-15817.245342114195,-9221.0835948339,-22207.34662768472,0.0
2491.803669145712,-7734.894992884406,-9090.31147843588,-10357.673230479752,-15582.686776903793,-15819.353225239814,-9222.357851864643,-22205.32210716859,0.0
2492.375298467914,-7728.356982511715,-9080.343692129974,-10352.802472296817,-15585.05665680209,-15817.054799006795,-9219.856973580007,-22196.36658112075,0.0
2487.5759939502564,-7729.571694821395,-9078.92652776868,-10350.944676999661,-15584.806568973627,-15815.101732155934,-9219.225799536742,-22200.582347371994,0.0
2493.66146444287,-7732.322660934495,-9079.569610756158,-10350.468319231159,-15587.164539927713,-15812.446037596537,-9218.65417021454,-22198.819823628535,0.0
2496.412430555969,-7733.406374857836,-9080.522326293161,-10346.085827760939,-15579.245092026365,-15808.492268117969,-9213.580959979992,-22198.021924366294,0.0
2498.127318522576,-7729.643148486671,-9079.879243305684,-10344.656754455433,-15574.100428126543,-15817.388249444744,-9215.164849560262,-22198.903186238025,0.0
2495.6859849590032,-7725.856104227079,-9076.425649484045,-10340.833983363204,-15575.124597328822,-15819.222226853477,-9217.665727844897,-22200.582347371994,0.0
2500.9497383009507,-7724.391304088936,-9075.93738277133,-10340.750620753717,-15575.85104292579,-15814.970733769598,-9219.321071090442,-22200.868162033094,0.0
2494.0068238250337,-7733.454010634687,-9084.583276269643,-10351.03994855336,-15581.352975151987,-15814.434831280034,-9219.094801150404,-22202.654503664977,0.0
2484.83693678137,-7733.275376471498,-9083.035113522012,-10351.766394150327,-15586.378549609684,-15815.304184207547,-9215.2958479466,-22200.61807420463,0.0
2491.220130879297,-7740.778011325406,-9092.848083553154,-10360.376560816001,-15595.083987829059,-15821.830285636028,-9225.70426518837,-22205.76273810445,0.0
2485.2061140519586,-7734.323363562204,-9086.512525232074,-10352.135571420917,-15585.080474690516,-15812.779488034486,-9221.143139554963,-22198.665007353775,0.0
2491.4583097635477,-7728.809522391792,-9081.403588164892,-10348.443798715025,-15581.87696869734,-15810.147611363516,-9219.40443369993,-22196.652395781854,0.0
2493.2922871722803,-7728.678524005454,-9085.214450312908,-10351.611577875563,-15584.449300647251,-15810.969328514178,-9216.558196033131,-22199.31999928546,0.0
2488.5525273756853,-7734.525815613817,-9090.180480049541,-10358.04240775034,-15592.035298110646,-15819.007865857653,-9225.57326680203,-22201.916149123797,0.0
2488.4691647661975,-7732.525112986108,-9085.381175531882,-10354.838901757164,-15588.486432735304,-15817.471612054233,-9224.739640707154,-22196.83102994504,0.0
2493.1136530090926,-7732.870472368272,-9083.118476131498,-10352.01648197879,-15585.485378793743,-15814.946915881173,-9214.9147617318,-22196.378490064963,0.0
2492.6849310174402,-7731.405672230128,-9081.72512965863,-10351.159037995485,-15585.795011343269,-15815.661452533925,-9214.200225079047,-22202.52350527864,0.0
2490.362686895993,-7731.191311234303,-9084.85718198653,-10353.004924348432,-15586.057008115946,-15816.161628190852,-9211.080081695358,-22199.129456178063,0.0
2498.2344990204892,-7728.726159782304,-9086.750704116326,-10351.849756759815,-15584.54457220095,-15820.305940776821,-9214.890943843373,-22204.821931511662,0.0
2511.846422255435,-7723.807765822521,-9083.73774123055,-10349.146426423566,-15581.92460447419,-15822.318552348741,-9221.440863160276,-22201.77324179325,0.0
2514.847476196998,-7725.987102613418,-9082.177669538705,-10348.00316777916,-15580.400259614984,-15817.007163229944,-9220.857324893861,-22194.425423214103,0.0
2503.4744344740116,-7733.025288643035,-9084.57136732543,-10350.658862338558,-15582.377144354266,-15816.673712791991,-9217.094098522695,-22196.759576279765,0.0
2490.7794999434323,-7738.5034029808085,-9090.061390607416,-10355.839253071019,-15588.117255464716,-15820.246396055758,-9225.513722080968,-22203.678672867256,0.0
2487.373541898643,-7734.251909896928,-9086.059985351998,-10352.01648197879,-15583.329859891272,-15817.185797393131,-9228.776772795207,-22205.65555760654,0.0
2491.1248593255964,-7730.679226633162,-9082.249123203983,-10347.050452242156,-15580.281170172859,-15820.53221071686,-9236.898672748166,-22204.643297348473,0.0
2503.3672539760987,-7725.34401962594,-9078.426352111754,-10344.954478060747,-15577.899381330348,-15819.543768347217,-9235.588688884787,-22199.843992830814,0.0
2489.862511239066,-7719.3300027986015,-9075.13948350909,-10344.656754455433,-15578.554373262037,-15814.32765078212,-9224.382372380776,-22198.355374804247,0.0
2489.1360656421007,-7717.567479055145,-9071.614436022173,-10341.715245234933,-15579.090275751603,-15812.112587158585,-9219.892700412645,-22204.643297348473,0.0
2500.270928480835,-7717.114939175068,-9068.13702431211,-10333.974431496776,-15571.111283129194,-15805.336397901641,-9208.579203410722,-22198.105286975784,0.0
2503.6530686372,-7720.258900447181,-9072.031249069614,-10334.78423970323,-15565.561715126145,-15802.633067565394,-9204.684978653217,-22196.485670562874,0.0
2499.1038519480057,-7725.701287952316,-9080.593779958437,-10345.823830988264,-15575.612864041539,-15810.77878540678,-9210.77044914583,-22210.71685889687,0.0
2523.052738759445,-7719.544363794428,-9075.13948350909,-10339.92890360305,-15571.32564412502,-15804.62186124889,-9206.98340488624,-22203.118952489265,0.0
2491.589308149886,-7720.342263056668,-9071.245258751585,-10336.856395996214,-15573.48116302749,-15803.240423720235,-9210.008276716228,-22200.868162033094,0.0
2485.134660386683,-7719.365729631239,-9067.39866977093,-10331.044831220488,-15566.311978611535,-15799.905919340721,-9208.138572474856,-22198.272012194757,0.0
2486.0278312026244,-7735.859617365622,-9089.966119053715,-10356.637152333258,-15587.045450485588,-15817.912242990096,-9223.929832500698,-22209.752234415657,0.0
2496.6029736633695,-7732.977652866185,-9091.514281801346,-10359.173757450531,-15592.321112771746,-15819.019774801865,-9219.463978420992,-22205.75082916024,0.0
2498.0677738015133,-7731.358036453278,-9092.109729011974,-10353.83855044331,-15591.285034625256,-15811.94586193961,-9214.319314521172,-22200.963433586796,0.0
2492.601568407953,-7737.01478495424,-9092.347907896226,-10346.097736705153,-15571.349462013444,-15799.524833125917,-9217.975360394425,-22200.546620539353,0.0
2496.662518384432,-7735.704801090859,-9088.084505868132,-10338.797553902858,-15562.120030248718,-15802.954609059134,-9217.058371690058,-22196.259400622836,0.0
2496.04325328538,-7732.668020316659,-9089.370671843088,-10352.909652794731,-15578.697280592589,-15812.041133493309,-9210.556088150004,-22192.186541702144,0.0
2482.8243252094485,-7741.540183755009,-9095.646685443102,-10366.604938639164,-15592.726016874973,-15830.261818138513,-9225.930535128407,-22204.96483884221,0.0
2485.468110824635,-7740.706557660131,-9094.396246300785,-10367.14084112873,-15595.22689515961,-15830.428543357488,-9230.491660761816,-22202.35678005966,0.0
2497.9129575267502,-7737.705503718568,-9092.026366402486,-10361.007734859266,-15587.497990365664,-15822.663911730906,-9220.607237065396,-22200.01071804979,0.0
2500.652014695637,-7732.608475595596,-9091.323738693947,-10362.222447168946,-15590.665769526202,-15820.043944004145,-9214.831399122311,-22202.0114206775,0.0
2491.136768269809,-7728.261710958015,-9087.32233343853,-10354.993718031927,-15581.972240251042,-15813.636932017791,-9212.390065558739,-22200.20126115719,0.0
2499.54448288387,-7730.595864023674,-9086.298164236248,-10344.835388618621,-15569.801299265813,-15808.658993336943,-9214.200225079047,-22197.25975193669,0.0
2513.859033827356,-7737.06242073109,-9089.2873092336,-10343.596858420517,-15571.706730339822,-15815.673361478139,-9221.226502164449,-22200.332259543527,0.0
2500.6877415282747,-7731.810576333355,-9083.475744457874,-10342.07251356131,-15570.408655420653,-15817.32870472368,-9225.739992021006,-22199.367635062314,0.0
2488.9455225346996,-7728.4998898422655,-9077.9976301201,-10338.642737628095,-15567.836323470743,-15813.315390524052,-9221.297955829727,-22194.163426441428,0.0
2488.0166248861206,-7727.654354803174,-9081.72512965863,-10349.325060586754,-15582.138965470016,-15816.268808688767,-9218.880440154579,-22193.222619848635,0.0
2489.1360656421007,-7727.11845231361,-9083.106567187286,-10355.648709963618,-15587.474172477238,-15816.173537135064,-9217.02264485742,-22193.67515972871,0.0
2490.86286255292,-7722.938412895004,-9077.15209508101,-10348.527161324513,-15582.150874414228,-15808.789991723284,-9209.531918947725,-22188.518586884682,0.0
2491.5773992056734,-7725.5226537891285,-9081.07013772694,-10349.40842319624,-15581.984149195254,-15811.278961063706,-9209.389011617175,-22194.901780982607,0.0
2487.480722396556,-7729.964689980409,-9084.273643720117,-10346.848000190543,-15581.031433658249,-15812.874759588189,-9213.223691653617,-22202.630685776552,0.0
2502.343084773819,-7723.3314080540185,-9076.818644643057,-10336.689670777238,-15569.658391935262,-15801.215903204102,-9202.434188197045,-22195.28286719741,0.0
2515.6930112360888,-7726.868364485146,-9081.594131272292,-10344.692481288072,-15574.421969620284,-15815.744815143415,-9214.235951911682,-22196.7000315587,0.0
2505.034506165856,-7732.560839818745,-9088.001143258645,-10350.265867179543,-15577.006210514408,-15816.483169684592,-9212.640153387201,-22196.08076645965,0.0
2494.7094515335743,-7729.321606992931,-9082.403939478745,-10346.621730250505,-15574.92214527721,-15810.433426024614,-9208.865018071821,-22195.175686699495,0.0
2484.9441172792826,-7732.787109758784,-9085.678899137196,-10351.861665704027,-15580.00726445597,-15814.149016618932,-9214.486039740146,-22197.617020263067,0.0
2491.1248593255964,-7729.512150100332,-9085.08345192657,-10350.825587557534,-15578.875914755778,-15814.768281717983,-9216.570104977343,-22193.579888175012,0.0
2499.997022763947,-7732.132117827094,-9087.977325370219,-10350.658862338558,-15579.471361966403,-15815.661452533925,-9214.759945457035,-22189.149760927943,0.0
2498.5203136815903,-7735.025991270744,-9091.407101303434,-10353.731369945397,-15582.543869573243,-15816.828529066754,-9216.27238137203,-22192.48426530746,0.0
2508.511917875921,-7726.439642493495,-9081.379770276466,-10344.561482901732,-15575.779589260514,-15811.71959199957,-9218.904258043003,-22193.294073513913,0.0
2483.931857021216,-7733.1086512525235,-9089.513579173637,-10349.968143574231,-15580.817072662423,-15815.244639486487,-9231.68255518307,-22195.854496519612,0.0
2486.551824747977,-7736.371701966762,-9092.621813613114,-10351.397216879737,-15578.875914755778,-15813.30348157984,-9218.284992943949,-22189.387939812194,0.0
2497.8176859730497,-7727.91635157585,-9082.082397985007,-10347.002816465307,-15576.744213741731,-15811.040782179454,-9205.363788473333,-22192.686717359073,0.0
2484.4320326781426,-7733.870823682127,-9088.525136803997,-10356.696697054322,-15586.342822777046,-15816.233081856128,-9216.939282247931,-22214.313360049062,0.0
2486.8019125764404,-7731.584306393317,-9086.20289268255,-10353.56464472642,-15583.663310329222,-15815.589998868649,-9214.27167874432,-22208.00161961641,0.0
2502.2597221643314,-7726.2371904418815,-9081.963308542881,-10347.21717746113,-15577.744565055586,-15808.039728237893,-9211.758891515474,-22197.855199147318,0.0
2500.568652086149,-7725.95137578078,-9083.285201350474,-10345.14502116815,-15577.780291888223,-15803.061789557045,-9204.851703872193,-22196.116493292287,0.0
2484.0390375191287,-7726.975544983059,-9084.928635651806,-10343.465860034179,-15576.363127526929,-15805.384033678492,-9205.697238911283,-22201.79705968167,0.0
2496.1266158948674,-7723.724403213033,-9083.070840354647,-10349.77760046683,-15580.00726445597,-15811.409959450046,-9210.67517759213,-22203.17849721033,0.0
2512.2155995260237,-7727.5233564168375,-9083.82110384004,-10350.670771282772,-15576.101130754254,-15811.600502557445,-9211.139626416421,-22202.964136214505,0.0
2489.5052429126895,-7744.195878314408,-9100.183993188084,-10362.734531770086,-15587.355083035112,-15823.366539439447,-9221.536134713977,-22212.955740408834,0.0
2493.470921335469,-7724.8795708016505,-9085.940895909873,-10347.717353118058,-15571.968727112497,-15806.967923258762,-9204.149076163652,-22195.21141353213,0.0
2487.040091460691,-7729.095337052893,-9087.822509095455,-10350.885132278596,-15573.75506874438,-15810.552515466741,-9208.19811719592,-22201.570789741632,0.0
2493.66146444287,-7728.559434563328,-9084.464186827516,-10345.133112223935,-15572.933351593714,-15810.87405696048,-9207.983756200094,-22201.118249861556,0.0
2507.3091145104527,-7730.798316075288,-9087.119881386916,-10347.145723795857,-15576.589397466967,-15812.624671759724,-9219.416342644143,-22199.736812332903,0.0
2501.7833643958297,-7740.837556046469,-9095.289417116726,-10355.112807474052,-15582.186601246865,-15817.828880380608,-9230.015302993312,-22203.41667609458,0.0
2483.5388618622014,-7738.801126586122,-9092.681358334177,-10356.756241775385,-15584.365938037763,-15817.471612054233,-9221.297955829727,-22209.966595411483,0.0
2476.0362270082946,-7740.289744612691,-9096.563674147468,-10363.449068422839,-15590.272774367188,-15823.783352486884,-9221.54804365819,-22207.84680334165,0.0
2481.0975282986287,-7738.515311925021,-9090.359114212728,-10354.91035542244,-15583.830035548199,-15819.758129343043,-9218.011087227062,-22206.02473487713,0.0
2486.158829588963,-7736.300248301487,-9089.084857181986,-10352.492839747292,-15583.42513144497,-15814.018018232591,-9218.201630334463,-22203.107043545053,0.0
2501.688092842129,-7729.250153327656,-9084.750001488617,-10343.977944635319,-15569.110580501487,-15801.25163003674,-9218.404082386076,-22196.83102994504,0.0
2496.6506094402203,-7730.262413585724,-9091.01410614442,-10354.600722872912,-15575.553319320476,-15821.675469361262,-9219.225799536742,-22200.129807491918,0.0
2479.7160907699727,-7733.549282188387,-9090.656837818044,-10361.448365795131,-15583.020227341744,-15829.952185588987,-9215.141031671837,-22206.286731649805,0.0
2485.8134702067987,-7736.216885691999,-9087.346151326954,-10353.886186220161,-15576.446490136417,-15817.650246217421,-9212.902150159878,-22204.845749400087,0.0
2498.8299462311165,-7734.561542446454,-9089.823211723164,-10346.574094473654,-15570.039478150064,-15811.374232617407,-9209.115105900286,-22202.19005484069,0.0
2526.5777862463606,-7730.131415199386,-9086.429162622588,-10343.108591707803,-15563.084654729935,-15807.884911963129,-9208.34102452647,-22199.796357053965,0.0
2499.520664995445,-7733.632644797875,-9087.143699275339,-10350.373047677458,-15571.135101017619,-15813.970382455744,-9211.723164682835,-22201.79705968167,0.0
2471.3917387653996,-7733.192013862012,-9086.583978897352,-10355.624892075191,-15580.793254773998,-15819.55567729143,-9219.273435313593,-22203.595310257766,0.0
2492.280026914214,-7727.451902751562,-9080.879594619539,-10349.718055745769,-15577.780291888223,-15816.89998273203,-9215.80793254774,-22201.237339303683,0.0
2489.4218803032018,-7727.463811695773,-9078.87889199183,-10346.871818078967,-15573.469254083278,-15813.005757974524,-9215.15294061605,-22205.203017726464,0.0
2481.1451640754785,-7729.845600538284,-9081.391679220678,-10349.003519093014,-15576.351218582717,-15814.470558112671,-9213.009330657791,-22206.834543083583,0.0
2489.3146998052885,-7730.9054965732,-9083.273292406262,-10350.027688295293,-15577.089573123894,-15814.56582966637,-9212.925968048303,-22203.595310257766,0.0
2497.7700501962,-7725.582198510191,-9077.128277192585,-10344.085125133231,-15571.111283129194,-15809.171077938083,-9209.901096218315,-22197.58129343043,0.0
2495.614531293728,-7724.153125204684,-9074.925122513263,-10340.679167088443,-15568.634222732982,-15808.325542898994,-9213.021239602003,-22200.022626994003,0.0
2491.3392203214225,-7721.092526542059,-9072.352790563353,-10340.619622367378,-15568.276954406607,-15809.826069869776,-9214.712309680184,-22200.34416848774,0.0
2499.7707528239084,-7723.998308929922,-9075.353844504914,-10344.752026009135,-15571.063647352343,-15811.802954609058,-9217.415640016434,-22202.225781673325,0.0
2494.1259132671594,-7728.356982511715,-9079.95069697096,-10344.847297562834,-15569.741754544752,-15808.92099010962,-9210.639450759492,-22201.868513346948,0.0
2486.468462138489,-7731.631942170166,-9082.249123203983,-10345.549925271374,-15571.671003507183,-15811.040782179454,-9208.829291239186,-22200.213170101404,0.0
2483.872312300153,-7727.011271815697,-9079.474339202457,-10343.465860034179,-15568.777130063534,-15807.265646864076,-9208.007574088519,-22202.82122888395,0.0
2481.2285266849667,-7725.1415675743265,-9077.306911355774,-10342.48932660875,-15568.276954406607,-15805.991389833334,-9209.853460441465,-22199.415270839163,0.0
2487.1472719586045,-7723.164682835043,-9076.59237470302,-10343.70403891843,-15570.20620336904,-15807.742004632579,-9212.806878606176,-22200.094080659277,0.0
2492.601568407953,-7722.521599847565,-9079.057526155018,-10345.633287880863,-15573.05244103584,-15810.814512239416,-9209.055561179224,-22203.118952489265,0.0
2492.708748905866,-7720.67571349462,-9078.962254601318,-10345.4784716061,-15573.469254083278,-15812.553218094448,-9208.936471737099,-22202.76168416289,0.0
2491.029587771896,-7718.2343799310465,-9076.104107990306,-10338.821371791284,-15564.763815863906,-15805.002947463692,-9207.769395204268,-22193.294073513913,0.0
2490.2555063980803,-7729.000065499193,-9087.393787103805,-10348.09843933286,-15573.159621533752,-15810.814512239416,-9213.604777868417,-22195.05659725737,0.0
2488.802615204149,-7732.215480436582,-9090.26384265903,-10352.195116141978,-15580.364532782345,-15818.11469504171,-9220.809689117012,-22202.463960557576,0.0
2494.31645637456,-7721.878516860087,-9078.295353725416,-10339.964630435688,-15568.467497514008,-15805.18158162688,-9207.424035822105,-22196.449943730237,0.0
2486.897184130141,-7731.22703806694,-9086.77452200475,-10345.752377322988,-15571.349462013444,-15807.563370469392,-9213.497597370504,-22201.749423904825,0.0
2492.9231099016915,-7732.525112986108,-9087.643874932268,-10349.07497275829,-15571.849637670372,-15810.659695964656,-9215.331574779239,-22200.820526256244,0.0
2496.067071173805,-7731.310400676428,-9082.356303701896,-10346.038191984091,-15569.074853668848,-15808.77808277907,-9210.949083309019,-22199.284272452824,0.0
2495.292989799989,-7732.263116213432,-9083.273292406262,-10347.157632740069,-15570.039478150064,-15809.504528376036,-9214.54558446121,-22200.51089370672,0.0
2494.495090537748,-7731.08413073639,-9083.26138346205,-10350.337320844821,-15576.291673861653,-15813.065302695588,-9221.00023222441,-22199.62963183499,0.0
2507.654473892617,-7730.143324143597,-9081.54649549544,-10348.670068655063,-15577.613566669246,-15813.065302695588,-9220.702508619097,-22193.972883334027,0.0
2509.9767180140648,-7727.499538528412,-9078.426352111754,-10342.465508720325,-15569.64648299105,-15805.026765352119,-9209.591463668788,-22191.126645667227,0.0
2495.5549865726653,-7722.533508791778,-9073.531776040394,-10333.533800560912,-15557.475542005823,-15798.131486653052,-9203.851352558338,-22192.6152636938,0.0
2485.3728392709345,-7724.403213033148,-9078.331080558053,-10336.60630816775,-15557.820901387986,-15802.990335891773,-9207.03104066309,-22196.604760005,0.0
2491.636943926736,-7728.416527232778,-9084.80954620968,-10346.312097700977,-15567.87205030338,-15808.182635568442,-9205.435242138607,-22201.737514960612,0.0
2503.271982422398,-7726.308644107156,-9084.583276269643,-10344.78775284177,-15567.82441452653,-15804.526589695191,-9202.743820746571,-22200.070262770852,0.0
2495.114355636801,-7728.059258906402,-9086.691159395263,-10351.683031540839,-15573.207257310602,-15808.087364014744,-9208.710201797061,-22199.760630221324,0.0
2492.411025300552,-7732.846654479847,-9085.821806467748,-10353.386010563234,-15577.30393411972,-15806.848833816639,-9211.080081695358,-22200.641892093056,0.0
2484.491577399205,-7733.620735853663,-9085.238268201332,-10350.968494888086,-15579.387999356917,-15800.287005555521,-9209.74627994355,-22201.32070191317,0.0
2490.5175031707563,-7730.9054965732,-9082.677845195634,-10347.133814851644,-15567.419510423304,-15801.525535753626,-9211.639802073347,-22203.571492369345,0.0
2483.8365854675153,-7728.404618288566,-9083.213747685199,-10353.243103232682,-15576.494125913267,-15819.55567729143,-9214.617038126484,-22207.537170792122,0.0
2486.5399158037644,-7725.355928570153,-9084.964362484445,-10354.005275662286,-15575.81531609315,-15821.28247420225,-9217.391822128007,-22201.999511733287,0.0
2481.6334307881934,-7725.415473291216,-9080.22460268785,-10350.480228175371,-15570.754014802818,-15814.839735383259,-9217.475184737497,-22190.9122846714,0.0
2483.1696845916126,-7729.54787693297,-9078.50971472124,-10349.277424809903,-15569.8846618753,-15810.492970745678,-9209.150832732923,-22206.524910534055,0.0
2484.7535741718816,-7728.38080040014,-9083.761559118975,-10352.183207197764,-15569.384486218372,-15807.527643636753,-9212.830696494602,-22207.572897624763,0.0
2497.4604176466732,-7727.380449086286,-9085.00008931708,-10350.027688295293,-15568.729494286685,-15808.075455070531,-9206.959586997815,-22196.330854288113,0.0
2515.300016077075,-7727.439993807349,-9084.48800471594,-10344.335212961694,-15565.95471028516,-15804.0621408709,-9202.541368694958,-22189.554665031173,0.0
2472.796994182481,-7741.635455308709,-9098.659648328878,-10358.73312651467,-15577.280116231294,-15816.316444465614,-9219.583067863117,-22211.562393935965,0.0
2484.181944849679,-7730.9054965732,-9084.416551050666,-10349.158335367778,-15566.943152654801,-15805.872300391207,-9210.210728767841,-22201.308792968957,0.0
2498.3535884626144,-7727.91635157585,-9079.926879082535,-10350.28968506797,-15573.707432967529,-15813.327299468265,-9215.99847565514,-22199.03418462436,0.0
2497.174602985572,-7735.954888919322,-9088.63231730191,-10359.72156888431,-15584.234939651426,-15826.486682823135,-9225.406541583056,-22201.7256060164,0.0
2485.968286481562,-7734.668722944367,-9084.880999874955,-10355.386713190941,-15578.911641588415,-15821.532562030712,-9216.73683019632,-22205.095837228553,0.0
2495.936072787467,-7728.035441017976,-9078.140537450652,-10346.728910748418,-15569.706027712113,-15815.054096379085,-9217.558547346984,-22197.25975193669,0.0
2489.4933339684767,-7734.942628661256,-9085.917078021448,-10353.505100005359,-15574.624421671895,-15821.961284022364,-9231.456285243032,-22198.938913070662,0.0
2494.9119035851872,-7731.751031612292,-9085.786079635109,-10353.457464228508,-15574.112337070756,-15818.221875539624,-9217.368004239584,-22189.888115469123,0.0
2492.399116356339,-7738.598674534509,-9094.277156858658,-10356.363246616373,-15579.852448181206,-15825.522058341916,-9226.252076622146,-22193.651341840286,0.0
2501.688092842129,-7732.977652866185,-9088.370320529233,-10347.264813237982,-15572.206905996749,-15819.543768347217,-9223.584473118535,-22196.616668949213,0.0
2499.8779333218213,-7726.987453927272,-9082.713572028271,-10345.371291108188,-15570.492018030141,-15815.887722473963,-9216.41528870258,-22201.201612471046,0.0
2485.384748215147,-7728.6904329496665,-9088.31077580817,-10354.957991199291,-15579.82863029278,-15819.210317909265,-9216.915464359507,-22211.371850828564,0.0
2486.897184130141,-7724.581847196337,-9084.690456767556,-10354.731721259252,-15582.734412680644,-15816.816620122541,-9214.890943843373,-22203.46431187143,0.0
2490.4341405612686,-7726.0109205018425,-9083.475744457874,-10352.67147391048,-15575.5771372089,-15811.552866780596,-9213.19987376519,-22195.49722819323,0.0
2490.0768722348917,-7722.986048671855,-9082.38012159032,-10352.052208811427,-15572.337904383086,-15817.412067333169,-9216.320017148879,-22193.294073513913,0.0
2488.9217046462745,-7726.403915660857,-9088.21550425447,-10354.374452932874,-15574.195699680246,-15816.352171298253,-9212.151886674488,-22200.713345758333,0.0
2496.4838842212444,-7732.429841432408,-9087.52478549014,-10351.540124210287,-15570.730196914392,-15810.98123745839,-9212.5448818335,-22200.498984762507,0.0
2491.767942313074,-7737.538778499592,-9089.311127122024,-10351.694940485051,-15573.790795577019,-15816.495078628805,-9219.011438540916,-22204.274120077884,0.0
2489.6719681316654,-7734.811630274918,-9087.965416426006,-10351.861665704027,-15575.01741683091,-15813.16057424929,-9217.534729458559,-22203.118952489265,0.0
2501.7238196747667,-7724.391304088936,-9078.092901673801,-10344.525756069095,-15568.098320243418,-15806.586837043962,-9209.460465282451,-22198.629280521134,0.0
2505.7252249301837,-7728.476071953841,-9080.391327906824,-10344.668663399645,-15568.396043848732,-15809.028170607535,-9214.676582847547,-22202.66641260919,0.0
2515.9430990645524,-7722.604962457053,-9073.329323988783,-10335.177234862243,-15557.392179396335,-15798.441119202578,-9202.839092300272,-22197.366932434605,0.0
2491.6488528709488,-7727.547174305261,-9077.068732471524,-10343.584949476304,-15566.728791658974,-15809.182986882297,-9206.673772336713,-22200.641892093056,0.0
2478.120292245491,-7732.215480436582,-9082.999386689373,-10353.290739009533,-15575.922496591063,-15816.661803847779,-9212.473428168225,-22204.72665995796,0.0
2480.1448127616245,-7739.408482740962,-9091.62146229926,-10359.280937948446,-15581.102887323523,-15821.461108365436,-9215.938930934079,-22210.192865351524,0.0
2484.825027837157,-7738.515311925021,-9088.894314074585,-10353.83855044331,-15577.03002840283,-15819.388952072452,-9216.058020376204,-22208.335070054363,0.0
2494.8761767525502,-7733.799370016851,-9086.941247223727,-10349.07497275829,-15574.481514341345,-15815.899631418177,-9216.355743981518,-22203.238041931392,0.0
2496.9602419897465,-7729.035792331831,-9085.345448699247,-10348.157984053923,-15570.992193687069,-15809.254440547573,-9207.150130105216,-22197.140662494567,0.0
2494.0068238250337,-7724.605665084761,-9078.497805777028,-10344.978295949173,-15566.109526559922,-15805.717484116445,-9204.220529828928,-22195.49722819323,0.0
2505.689498097546,-7725.939466836567,-9077.747542291638,-10346.574094473654,-15571.32564412502,-15813.613114129366,-9215.700752049826,-22197.700382872557,0.0
2513.1087703419653,-7725.48692695649,-9078.247717948565,-10345.597561048226,-15569.527393548924,-15811.33850578477,-9221.107412722324,-22192.650990526432,0.0
2481.0260746333533,-7730.441047748912,-9081.344043443829,-10346.395460310467,-15570.313383866953,-15810.219065028788,-9215.545935775064,-22192.44853847482,0.0
2493.4351945028316,-7721.3307054263105,-9071.74543440851,-10337.189846434165,-15563.060836841509,-15804.050231926689,-9202.755729690783,-22187.839777064564,0.0
2478.5013784602925,-7729.500241156121,-9081.594131272292,-10345.43083582925,-15568.753312175108,-15813.39875313354,-9206.4713202851,-22212.431746863484,0.0
2496.174251671718,-7727.7496263568755,-9080.296056353123,-10343.025229098314,-15566.073799727284,-15815.280366319123,-9205.11370064487,-22201.249248247896,0.0
2505.391774492232,-7734.454361948541,-9088.751406744035,-10346.883727023182,-15567.836323470743,-15809.99279508875,-9213.557142091568,-22209.371148200855,0.0
2500.318564257686,-7728.261710958015,-9083.547198123151,-10339.13100434081,-15554.367307566346,-15794.308715560823,-9202.327007699132,-22196.92630149874,0.0
2488.635889985173,-7726.18955466503,-9080.331783185762,-10343.144318540439,-15561.94139608553,-15799.643922568044,-9201.350474273702,-22198.65309840956,0.0
2489.0288851441874,-7723.188500723469,-9077.747542291638,-10346.085827760939,-15566.788336380037,-15802.180527685317,-9201.814923097993,-22197.033481996652,0.0
2504.3199695131025,-7720.282718335606,-9073.55559392882,-10338.845189679709,-15559.166612084005,-15802.287708183228,-9206.161687735574,-22189.245032481645,0.0
2486.492280026914,-7731.000768126902,-9083.571016011576,-10343.668312085792,-15565.645077735633,-15812.112587158585,-9212.72351599669,-22205.405469778074,0.0
2481.8001560071693,-7729.393060658207,-9084.047373780078,-10340.190900375726,-15560.762410608488,-15807.730095688366,-9208.984107513947,-22209.144878260817,0.0
2493.3994676701936,-7722.485873014928,-9075.84211121763,-10334.950964922205,-15555.73683615079,-15805.336397901641,-9203.01772646346,-22197.879017035746,0.0
2494.816632031487,-7722.604962457053,-9074.21058586051,-10335.248688527518,-15555.117571051738,-15802.942700114922,-9202.636640248658,-22196.890574666104,0.0
2494.792814143062,-7724.486575642636,-9078.759802549705,-10343.906490970043,-15563.430014112098,-15804.824313300502,-9207.447853710528,-22197.271660880902,0.0
2487.3973597870677,-7730.976950238476,-9086.310073180462,-10352.826290185243,-15570.68256113754,-15810.004704032963,-9210.508452373153,-22199.689176556054,0.0
2492.7563846827156,-7728.059258906402,-9081.77276543548,-10350.24204929112,-15569.265396776247,-15807.622915190455,-9204.98270225853,-22195.794951798547,0.0
2490.9104983297707,-7724.0459447067715,-9079.462430258245,-10350.349229789033,-15575.565228264688,-15809.19489582651,-9204.256256661567,-22192.031725427383,0.0
2498.663221012141,-7726.808819764084,-9084.880999874955,-10352.01648197879,-15577.530204059758,-15807.206102143013,-9206.70949916935,-22192.53190108431,0.0
2505.082141942706,-7724.8795708016505,-9083.16611190835,-10348.360436105537,-15567.931595024444,-15806.372476048135,-9203.291632180348,-22198.391101636884,0.0
2507.1662071799024,-7724.486575642636,-9081.713220714417,-10345.871466765115,-15566.38343227681,-15807.837276186281,-9204.98270225853,-22197.748018649403,0.0
2494.4236368724733,-7727.761535301088,-9084.928635651806,-10350.063415127932,-15569.229669943612,-15807.491916804116,-9207.626487873717,-22200.165534324555,0.0
2486.813821520653,-7728.059258906402,-9084.952453540232,-10352.969197515793,-15571.694821395608,-15810.993146402605,-9210.57990603843,-22202.487778446,0.0
2488.564436319898,-7723.879219487796,-9080.165057966786,-10349.02733698144,-15569.7893903216,-15810.26670080564,-9208.543476578085,-22201.939967012226,0.0
2492.696839961653,-7723.081320225555,-9080.569962070012,-10346.871818078967,-15570.122840759554,-15808.242180289506,-9206.256959289274,-22202.368689003873,0.0
2495.6859849590032,-7724.867661857437,-9084.547549437004,-10345.264110610275,-15567.717234028616,-15802.883155393858,-9200.147670908236,-22198.176740641058,0.0
2494.4236368724733,-7725.427382235427,-9084.797637265468,-10341.870061509697,-15565.740349289334,-15803.657236767674,-9196.312990871795,-22192.01981648317,0.0
2498.42504212789,-7730.2385956972985,-9090.22811582639,-10349.205971144629,-15566.526339607362,-15805.93184511227,-9201.33856532949,-22188.590040549952,0.0
2496.519611053882,-7733.692189518938,-9092.18118267725,-10357.577958926051,-15571.540005120845,-15809.254440547573,-9208.734019685484,-22190.817013117703,0.0
2495.864619122192,-7727.308995421011,-9083.5948339,-10354.362543988662,-15574.624421671895,-15814.80400855062,-9220.964505391774,-22189.483211365896,0.0
2502.700353100196,-7712.660994039574,-9069.792367557655,-10337.0350301594,-15563.6205572195,-15810.600151243592,-9216.189018762541,-22183.99318808391,0.0
2495.5073507958155,-7715.578685371648,-9073.210234546656,-10339.154822229235,-15565.275900465045,-15813.601205185154,-9213.021239602003,-22191.079009890378,0.0
2486.551824747977,-7732.179753603944,-9086.845975670027,-10350.43259239852,-15572.337904383086,-15814.970733769598,-9214.700400735974,-22201.987602789075,0.0
2494.36409215141,-7727.737717412662,-9086.845975670027,-10348.360436105537,-15569.348759385737,-15811.088417956305,-9211.353987412245,-22195.90213229646,0.0
2504.117517461489,-7718.722646643761,-9081.391679220678,-10343.989853579531,-15565.383080962958,-15809.171077938083,-9206.697590225138,-22191.674457101006,0.0
2493.208924562793,-7725.534562733341,-9083.904466449527,-10343.692129974217,-15564.073097099576,-15810.31433658249,-9205.530513692309,-22194.830327317333,0.0
2494.792814143062,-7734.597269279092,-9089.311127122024,-10345.883375709327,-15564.859087417604,-15811.85059038591,-9207.376400045254,-22197.462203988303,0.0
2509.7028122971756,-7731.536670616467,-9086.619705729989,-10342.274965612924,-15561.917578197104,-15805.836573558572,-9200.933661226265,-22195.175686699495,0.0
2512.346597912362,-7724.260305702598,-9081.86803698918,-10335.62977474232,-15556.20128497508,-15799.143746911119,-9198.95677648698,-22188.518586884682,0.0
2489.8744201832787,-7728.416527232778,-9082.356303701896,-10340.702984976866,-15561.465038317028,-15805.93184511227,-9207.066767495726,-22196.97393727559,0.0
2485.432383991997,-7727.154179146247,-9074.043860641534,-10337.523296872116,-15559.631060908296,-15808.658993336943,-9212.628244442989,-22199.891628607664,0.0
2486.0992848678998,-7732.584657707171,-9080.891503563753,-10345.323655331336,-15570.694470081755,-15815.04218743487,-9217.618092068047,-22200.558529483566,0.0
2495.090537748376,-7727.1065433693975,-9078.807438326556,-10344.03748935638,-15573.540707748554,-15810.87405696048,-9211.961343567085,-22197.295478769327,0.0
2497.6509607540743,-7721.866607915875,-9075.163301397513,-10336.832578107787,-15559.94069345782,-15801.63271625154,-9207.864666757969,-22195.43768347217,0.0
2494.030641713459,-7724.641391917399,-9081.129682448003,-10343.79931047213,-15566.669246937912,-15811.743409887995,-9214.295496632747,-22197.200207215632,0.0
2494.483181593536,-7728.773795559155,-9088.12023270077,-10344.561482901732,-15564.763815863906,-15803.323786329722,-9204.577798155304,-22193.687068672923,0.0
2493.6852823312947,-7728.678524005454,-9091.90727696036,-10345.168839056572,-15564.120732876427,-15804.99103851948,-9204.018077777313,-22196.390399009175,0.0
2499.854115433396,-7724.820026080588,-9089.418307619939,-10351.12331116285,-15567.312329925391,-15809.15916899387,-9204.851703872193,-22195.139959866858,0.0
2501.9739075032303,-7722.724051899178,-9080.04596852466,-10346.038191984091,-15563.942098713238,-15804.502771806767,-9202.946272798185,-22194.377787437257,0.0
2503.5816149719244,-7733.09674230831,-9088.001143258645,-10352.040299867214,-15573.290619920092,-15811.588593613233,-9210.889538587955,-22197.95047070102,0.0
2517.348354481633,-7728.666615061242,-9084.095009556926,-10344.87111545126,-15562.215301802418,-15803.716781488738,-9202.767638634996,-22196.59285106079,0.0
2493.256560339643,-7728.273619902227,-9087.096063498491,-10353.028742236856,-15571.849637670372,-15809.61170887395,-9204.458708713179,-22198.593553688497,0.0
2484.8845725582196,-7728.976247610768,-9086.417253678375,-10350.885132278596,-15568.467497514008,-15808.26599817793,-9205.244699031207,-22194.437332158315,0.0
2499.211032445918,-7728.2378930695895,-9086.548252064713,-10348.97970120459,-15566.407250165237,-15809.48071048761,-9207.412126877893,-22192.21035959057,0.0
2507.76165439053,-7726.058556278694,-9084.642820990704,-10346.478822919953,-15564.204095485915,-15808.26599817793,-9206.888133332539,-22194.520694767805,0.0
2510.988978272131,-7723.438588551932,-9076.425649484045,-10336.439582948773,-15556.129831309805,-15801.07299587355,-9202.053101982245,-22192.603354749586,0.0
2502.4621742159447,-7727.439993807349,-9079.903061194109,-10339.607362109313,-15560.333688616834,-15803.657236767674,-9204.661160764792,-22193.270255625488,0.0
2496.3171590022685,-7731.524761672254,-9088.03687009128,-10348.83679387404,-15564.418456481739,-15805.360215790068,-9210.008276716228,-22191.85309126419,0.0
2497.579507088799,-7727.11845231361,-9082.475393144021,-10343.680221030005,-15558.332985989127,-15804.51468075098,-9206.602318671437,-22189.471302421684,0.0
2487.683174448169,-7731.3342185648535,-9082.249123203983,-10350.24204929112,-15568.872401617233,-15816.256899744554,-9216.200927706754,-22198.331556915822,0.0
2500.5091073650865,-7725.701287952316,-9074.21058586051,-10340.786347586354,-15559.214247860855,-15803.9668693172,-9204.137167219438,-22189.84047969227,0.0
2501.2712797946897,-7730.262413585724,-9078.68834888443,-10343.846946248981,-15562.513025407732,-15805.896118279632,-9208.912653848673,-22192.948714131748,0.0
2498.4607689605277,-7729.035792331831,-9079.11707087608,-10343.823128360555,-15563.01320106466,-15805.13394585003,-9212.461519224013,-22195.41386558375,0.0
2490.708046278157,-7733.942277347402,-9084.368915273815,-10347.229086405345,-15566.407250165237,-15809.349712101273,-9217.653818900684,-22198.569735800073,0.0
2497.758141251987,-7734.013731012677,-9087.917780649155,-10351.111402218636,-15568.908128449872,-15811.302778952131,-9214.986215397073,-22189.947660190184,0.0
2503.569706027712,-7733.41828380205,-9087.965416426006,-10351.087584330211,-15569.098671557273,-15813.243936858777,-9212.425792391374,-22188.173227502517,0.0
2492.1728464163007,-7737.443506945891,-9093.479257596418,-10354.874628589801,-15575.600955097327,-15810.68351385308,-9207.650305762143,-22205.965190156065,0.0
2499.6159365491453,-7727.975896296914,-9083.749650174763,-10341.97724200761,-15560.952953715889,-15799.703467289108,-9203.386903734048,-22194.806509428905,0.0
2506.2134916428986,-7726.630185600896,-9082.01094431973,-10345.871466765115,-15562.64402379407,-15810.469152857251,-9210.62754181528,-22189.959569134397,0.0
2499.854115433396,-7720.854347657808,-9074.686943629013,-10341.667609458083,-15558.452075431253,-15809.599799929738,-9212.59251761035,-22190.209656962863,0.0
2497.6985965309245,-7720.67571349462,-9072.650514168667,-10344.013671467956,-15564.216004430127,-15810.993146402605,-9208.483931857021,-22190.99564728089,0.0
2496.1266158948674,-7729.917054203559,-9086.000440630934,-10354.553087096063,-15572.790444263164,-15817.019072174156,-9214.50985762857,-22200.880070977306,0.0
2489.362335582139,-7729.011974443405,-9090.323387380093,-10354.707903370825,-15571.813910837735,-15815.685270422351,-9210.103548269928,-22205.738920216027,0.0
2484.193853793892,-7742.314265128824,-9105.078569259442,-10366.521576029678,-15582.603414294306,-15825.450604676644,-9216.629649698405,-22210.907402004275,0.0
2488.3381663798596,-7743.755247378544,-9103.48277073496,-10366.545393918102,-15582.508142740604,-15824.759885912314,-9217.415640016434,-22207.227538242594,0.0
2492.256209025789,-7745.946493113653,-9103.578042288662,-10367.343293180342,-15586.164188613859,-15825.331515234517,-9219.809337803157,-22207.10844880047,0.0
2507.285296622028,-7745.1128670187745,-9101.815518545203,-10365.473588938972,-15584.318302260912,-15823.699989877396,-9215.367301611876,-22205.679375494965,0.0
2531.258001321893,-7739.706206346275,-9093.419712875355,-10356.982511715425,-15576.625124299606,-15818.817322750252,-9212.485337112437,-22196.854847833467,0.0
2511.5367897059086,-7735.418986429758,-9087.143699275339,-10349.991961462656,-15571.944909224072,-15813.803657236766,-9211.711255738623,-22189.804752859636,0.0
2487.3973597870677,-7725.5941074544035,-9080.498508404738,-10343.180045373078,-15563.179926283634,-15803.931142484562,-9204.732614430068,-22191.257644053567,0.0
2497.3651460929727,-7730.66731768895,-9093.657891759605,-10355.434348967792,-15572.980987370564,-15810.397699191979,-9204.589707099516,-22199.284272452824,0.0
2496.1980695601433,-7737.193419117428,-9103.697131730787,-10364.782870174644,-15584.758933196777,-15823.473719937358,-9216.403379758367,-22205.0482014517,0.0
2497.234147706635,-7742.111813077212,-9103.280318683348,-10361.531728404618,-15583.853853436623,-15820.818025377961,-9223.584473118535,-22204.941020953785,0.0
2492.7802025711408,-7749.99553414592,-9112.223935786973,-10366.390577643338,-15578.411465931487,-15812.481764429172,-9212.473428168225,-22211.30039716329,0.0
2485.884923872074,-7746.25612566318,-9104.23303422035,-10364.878141728344,-15581.769788199426,-15818.793504861827,-9212.020888288149,-22204.667115236898,0.0
2491.1010414371713,-7744.86277919031,-9101.458250218826,-10365.79513043271,-15582.94877367647,-15825.724510393533,-9217.915815673361,-22206.941723581494,0.0
2481.7525202303186,-7747.720925801324,-9104.006764280311,-10364.85432383992,-15584.270666484063,-15823.652354100548,-9219.571158918905,-22210.157138518884,0.0
2485.44429293621,-7753.353856413859,-9109.9731453308,-10368.605641266873,-15589.927414985024,-15823.819079319523,-9217.189370076396,-22206.774998362518,0.0
2493.14937984173,-7750.04316992277,-9104.935661928892,-10366.997933798179,-15585.37819829583,-15812.993849030312,-9208.245752972769,-22211.19321666538,0.0
2501.7833643958297,-7740.706557660131,-9091.478554968708,-10356.422791337434,-15569.717936656325,-15803.014153780197,-9197.08707224561,-22201.201612471046,0.0
2494.2807295419225,-7730.0837794225345,-9077.56890812845,-10341.56042896017,-15561.226859432776,-15800.56091127241,-9191.5732310752,-22194.651693154145,0.0
2484.0152196307035,-7732.941926033548,-9080.569962070012,-10339.869358881988,-15566.323887555747,-15805.93184511227,-9206.5665918388,-22206.81072519516,0.0
2490.922407273983,-7732.668020316659,-9084.964362484445,-10343.882673081616,-15563.2394710047,-15810.111884530877,-9215.66502521719,-22206.989359358344,0.0
2492.708748905866,-7731.5604885048915,-9088.179777421832,-10347.884078337034,-15563.191835227848,-15812.993849030312,-9219.321071090442,-22205.59601288548,0.0
2505.4513192132954,-7734.287636729565,-9094.336701579721,-10356.184612453182,-15569.586938269988,-15812.731852257635,-9216.998826968995,-22202.80931993974,0.0
2499.199123501706,-7734.525815613817,-9089.882756444227,-10352.409477137804,-15568.586586956133,-15813.041484807163,-9210.341727154178,-22200.1178985477,0.0
2490.660410501307,-7728.297437790652,-9077.604634961086,-10340.655349200017,-15561.977122918168,-15804.526589695191,-9198.099332503676,-22189.066398318453,0.0
2487.945171220845,-7738.562947701871,-9090.990288255995,-10354.54117815185,-15570.30147492274,-15811.076509012093,-9205.54242263652,-22194.282515883555,0.0
2486.563733692189,-7744.529328752359,-9099.469456535331,-10366.545393918102,-15579.233183082153,-15818.102786097497,-9212.008979343937,-22200.01071804979,0.0
2484.491577399205,-7734.942628661256,-9085.547900750858,-10354.35063504445,-15573.469254083278,-15812.386492875474,-9206.23314140085,-22199.11754723385,0.0
2490.827135720283,-7733.287285415711,-9083.273292406262,-10349.801418355255,-15568.181682852906,-15806.455838657623,-9205.089882756443,-22197.676564984133,0.0
2490.577047891819,-7735.692892146646,-9088.882405130373,-10352.409477137804,-15568.681858509834,-15807.78964040943,-9206.769043890414,-22200.332259543527,0.0
2489.5171518569023,-7734.406726171692,-9089.323036066236,-10350.515955008008,-15566.252433890473,-15806.158115052309,-9206.70949916935,-22205.38165188965,0.0
2495.6740760147904,-7733.501646411537,-9088.644226246122,-10348.33661821711,-15562.870293734108,-15804.347955532001,-9205.756783632347,-22204.07166802627,0.0
2497.0555135434465,-7733.954186291615,-9090.109026384265,-10350.730316003835,-15569.241578887824,-15812.64848964815,-9209.984458827803,-22202.487778446,0.0
2492.7921115153536,-7732.263116213432,-9087.870144872306,-10348.00316777916,-15562.775022180407,-15810.63587807623,-9207.709850483205,-22200.84434414467,0.0
2491.220130879297,-7738.539129813446,-9095.527596000977,-10356.422791337434,-15571.016011575493,-15817.507338886871,-9220.273786627447,-22207.251356131022,0.0
2492.089483806813,-7735.680983202435,-9091.633371243472,-10356.339428727946,-15573.135803645328,-15817.36443155632,-9212.973603825152,-22208.335070054363,0.0
2490.5532300033938,-7724.379395144723,-9078.27153583699,-10344.085125133231,-15565.95471028516,-15804.740950691017,-9201.672015767443,-22197.986197533657,0.0
2490.9104983297707,-7727.130361257823,-9082.511119976658,-10343.108591707803,-15565.037721580791,-15799.42956157222,-9200.647846565163,-22195.80686074276,0.0
2489.6600591874526,-7726.344370939794,-9083.16611190835,-10341.643791569659,-15560.881500050613,-15805.515032064832,-9208.591112354934,-22197.855199147318,0.0
2494.9119035851872,-7723.772038989883,-9081.951399598667,-10343.70403891843,-15557.868537164837,-15809.05198849596,-9209.329466896112,-22200.52280265093,0.0
2496.9006972686834,-7728.404618288566,-9084.095009556926,-10344.990204893385,-15559.785877183058,-15806.372476048135,-9206.256959289274,-22200.90388886573,0.0
2484.860754669795,-7741.814089471897,-9095.849137494715,-10357.839955698728,-15576.577488522755,-15821.699287249687,-9216.879737526868,-22210.704949952662,0.0
2486.242192198451,-7736.836150791051,-9089.251582400962,-10351.397216879737,-15569.908479763726,-15817.507338886871,-9214.68849179176,-22206.751180474093,0.0
2494.5427263145984,-7734.58536033488,-9088.977676684073,-10351.683031540839,-15568.181682852906,-15812.112587158585,-9211.901798846024,-22201.332610857382,0.0
2497.8772306941128,-7733.203922806223,-9087.596239155417,-10354.136274048624,-15569.158216278334,-15813.684567794642,-9209.329466896112,-22200.89197992152,0.0
2512.7276841271637,-7730.774498186864,-9085.107269814993,-10352.373750305167,-15571.05173840813,-15819.484223626154,-9214.68849179176,-22197.093026717717,0.0
2502.878987263384,-7732.203571492369,-9088.644226246122,-10351.647304708202,-15571.718639284034,-15818.936412192375,-9210.925265420594,-22197.66465603992,0.0
2473.237625118345,-7734.561542446454,-9093.896070643856,-10350.480228175371,-15569.658391935262,-15814.29192394948,-9215.200576392901,-22199.95117332873,0.0
2490.6127747244564,-7732.846654479847,-9093.657891759605,-10352.576202356779,-15570.932648966005,-15815.506636259164,-9214.819490178099,-22195.628226579574,0.0
2501.6761838979164,-7736.443155632038,-9090.883107758082,-10348.384253993961,-15566.276251778898,-15811.600502557445,-9211.473076854372,-22200.070262770852,0.0
2490.8033178318574,-7739.098850191436,-9090.585384152766,-10347.276722182194,-15564.32318492804,-15807.777731465218,-9203.839443614126,-22204.559934738987,0.0
2479.954269654224,-7737.586414276442,-9089.120584014623,-10346.74081969263,-15561.322130986478,-15808.730447002219,-9207.30494637998,-22207.33471874051,0.0
2493.8877343829085,-7735.657165314009,-9084.035464835864,-10337.30893587629,-15546.62649382819,-15799.322381074306,-9207.07867643994,-22206.239095872956,0.0
2515.0618371928235,-7731.739122668079,-9082.070489040794,-10339.107186452386,-15551.199528405808,-15801.882804080004,-9204.994611202745,-22199.939264384517,0.0
2486.3017369195136,-7736.728970293138,-9088.620408357698,-10351.92121042509,-15568.467497514008,-15815.899631418177,-9214.03349986007,-22207.44189923842,0.0
2477.9059312496647,-7740.349289333753,-9095.194145563024,-10360.721920198164,-15583.818126603985,-15819.543768347217,-9212.616335498777,-22207.811076509013,0.0
2483.550770806414,-7739.646661625213,-9099.481365479543,-10364.794779118856,-15587.414627756176,-15818.340964981748,-9211.877980957599,-22202.630685776552,0.0
2486.742367855378,-7736.371701966762,-9095.360870782,-10359.57866155376,-15577.041937347043,-15817.09052583943,-9209.555736836151,-22201.273066136324,0.0
2485.0751156656206,-7733.454010634687,-9091.01410614442,-10354.07672932756,-15571.027920519706,-15816.697530680418,-9210.341727154178,-22202.463960557576,0.0
2486.420826361639,-7734.668722944367,-9093.181533991103,-10356.78005966381,-15576.101130754254,-15820.032035059932,-9215.90320410144,-22202.725957330254,0.0
2484.0390375191287,-7733.358739080986,-9092.550359947838,-10355.958342513144,-15573.433527250641,-15817.304886835258,-9216.915464359507,-22201.83278651431,0.0
2486.039740146837,-7735.1093538802315,-9093.050535604765,-10358.852215956795,-15573.909885019144,-15817.185797393131,-9213.997773027431,-22202.976045158717,0.0
2492.6730220732284,-7736.705152404713,-9093.062444548978,-10361.245913743516,-15577.30393411972,-15819.817674064107,-9213.735776254756,-22206.358185315083,0.0
2494.5546352588112,-7739.944385230528,-9094.991693511412,-10361.103006412966,-15580.257352284432,-15818.150421874347,-9212.925968048303,-22207.215629298382,0.0
2491.3868560982723,-7734.287636729565,-9088.953858795649,-10352.588111300993,-15571.93300027986,-15807.813458297855,-9207.364491101041,-22198.79600574011,0.0
2485.7896523183736,-7735.276079099207,-9093.360168154293,-10356.184612453182,-15571.194645738682,-15819.686675677767,-9214.795672289672,-22197.10493566193,0.0
2482.0383348914197,-7737.133874396365,-9097.837931178212,-10359.257120060021,-15574.886418444572,-15823.437993104719,-9222.691302302594,-22204.155030635757,0.0
2488.7430704830863,-7735.645256369797,-9095.372779726213,-10354.886537534014,-15570.372928588016,-15812.172131879648,-9209.567645780364,-22201.78515073746,0.0
2490.1125990675296,-7744.386421421808,-9102.279967369494,-10362.103357726819,-15575.898678702639,-15814.18474345157,-9206.042598293448,-22202.3925068923,0.0
2490.505594226544,-7745.124775962987,-9104.518848881451,-10364.937686449408,-15577.601657725034,-15814.708736996921,-9213.700049422117,-22204.798113623237,0.0
2499.3182129438314,-7728.535616674903,-9086.452980511012,-10346.669366027356,-15562.393935965607,-15805.157763738454,-9202.029284093818,-22194.211062218277,0.0
2490.624683668669,-7735.549984816096,-9088.179777421832,-10348.84870281825,-15568.705676398258,-15815.49472731495,-9206.316504010336,-22205.072019340125,0.0
2480.9188941354405,-7743.028801781577,-9093.050535604765,-10354.660267593976,-15575.636681929962,-15819.210317909265,-9212.902150159878,-22211.336123995927,0.0
2496.340976890694,-7732.668020316659,-9085.142996647632,-10349.02733698144,-15568.84858372881,-15812.148313991223,-9205.840146241835,-22198.581644744285,0.0
2500.2113837597726,-7730.262413585724,-9085.047725093931,-10348.729613376125,-15569.717936656325,-15811.219416342643,-9204.268165605778,-22200.463257929867,0.0
2491.660761815161,-7733.918459458976,-9089.775575946314,-10351.194764828124,-15572.087816554622,-15812.6008538713,-9208.34102452647,-22211.10985405589,0.0
2502.747988877046,-7727.7853531895125,-9082.308667925045,-10341.596155792808,-15561.488856205453,-15802.466342346419,-9199.42122531127,-22199.71299444448,0.0
2499.0800340595806,-7728.857158168643,-9083.320928183111,-10342.4416908319,-15562.08430341608,-15805.360215790068,-9200.278669294574,-22197.75992759362,0.0
2471.1892867137863,-7735.049809159168,-9091.264193972884,-10350.837496501748,-15573.314437808516,-15817.54306571951,-9217.320368462733,-22198.772187851686,0.0
2482.6695089346854,-7731.274673843791,-9087.084154554277,-10347.669717341209,-15569.96802448479,-15811.838681441697,-9214.497948684359,-22199.55817816971,0.0
2486.6351873574645,-7730.976950238476,-9086.417253678375,-10348.765340208764,-15571.170827850256,-15809.182986882297,-9211.151535360632,-22209.60932708511,0.0
2493.1374708975177,-7728.4998898422655,-9084.130736389565,-10346.276370868341,-15568.753312175108,-15800.477548662924,-9197.7420641773,-22204.655206292686,0.0
2501.5928212884287,-7730.7268624100125,-9083.511471290512,-10345.788104155625,-15567.574326698066,-15801.013451152487,-9197.075163301397,-22202.90459149344,0.0
2494.3998189840477,-7735.502349039245,-9088.382229473445,-10352.421386082016,-15574.58869483926,-15812.874759588189,-9206.6618633925,-22205.28638033595,0.0
2492.0537569741755,-7733.858914737913,-9088.858587241948,-10352.576202356779,-15573.314437808516,-15813.54166046409,-9204.83979492798,-22201.153976694197,0.0
2492.887383069054,-7734.204274120078,-9092.93144616264,-10355.196170083542,-15573.719341911741,-15811.421868394258,-9203.5298110646,-22196.08076645965,0.0
2489.3385176937136,-7731.846303165993,-9092.83617460894,-10352.731018631543,-15572.516538546275,-15807.611006246243,-9200.63593762095,-22189.828570748057,0.0
2489.4695160800516,-7733.1443780851605,-9092.478906282564,-10348.884429650889,-15571.46855145557,-15806.610654932385,-9195.479364776915,-22193.615615007653,0.0
2488.302439547222,-7731.358036453278,-9087.500967601718,-10349.134517479351,-15572.802353207377,-15807.55146152518,-9193.097575934406,-22200.66570998148,0.0
2489.1360656421007,-7727.249450699948,-9081.963308542881,-10347.81262467176,-15575.076961551973,-15801.489808920991,-9193.419117428144,-22202.130510119623,0.0
2491.4583097635477,-7727.189905978886,-9082.916024079885,-10344.704390232284,-15569.896570819514,-15794.582621277712,-9189.322440619027,-22198.36728374846,0.0
2486.682823134315,-7736.907604456326,-9095.348961837788,-10353.386010563234,-15577.86365449771,-15808.956716942259,-9203.815625725701,-22206.334367426658,0.0
2488.2309858819467,-7735.049809159168,-9095.956317992628,-10351.96884620194,-15564.46609225859,-15799.870192508082,-9199.37358953442,-22207.691987066886,0.0
2491.8632138667745,-7735.28798804342,-9095.646685443102,-10354.505451319214,-15564.79954269654,-15811.57668466902,-9201.469563715827,-22209.656962861958,0.0
2485.563382378335,-7734.883083940193,-9088.179777421832,-10349.503694749941,-15569.396395162586,-15818.11469504171,-9208.34102452647,-22209.60932708511,0.0
2489.8386933506413,-7733.680280574726,-9083.380472904175,-10345.907193597752,-15570.634925360693,-15816.876164843605,-9212.997421713579,-22206.73927152988,0.0
2490.0887811791044,-7735.299896987632,-9085.774170690896,-10348.491434491874,-15573.445436194854,-15818.984047969227,-9211.723164682835,-22203.96448752836,0.0
2493.9830059366086,-7729.238244383444,-9084.607094158067,-10345.573743159799,-15566.56206644,-15813.172483193503,-9207.102494328365,-22203.92876069572,0.0
2499.7588438796956,-7730.143324143597,-9090.573475208555,-10347.848351504397,-15566.502521718936,-15813.898928790468,-9209.74627994355,-22207.84680334165,0.0
2507.9283796095056,-7733.501646411537,-9095.051238232474,-10351.266218493398,-15569.8846618753,-15816.364080242465,-9211.556439463859,-22206.060461709767,0.0
2499.675481270208,-7736.5979719068,-9093.086262437404,-10349.063063814077,-15566.835972156887,-15812.064951381735,-9211.377805300672,-22204.833840455874,0.0
2496.674427328645,-7739.003578637736,-9094.015160085983,-10356.232248230033,-15576.148766531102,-15817.685973050058,-9211.866072013385,-22207.429990294208,0.0
2501.045009854651,-7734.609178223304,-9089.501670229425,-10352.885834906307,-15575.958223423702,-15818.6744154197,-9209.4128295056,-22201.237339303683,0.0
2493.8281896618455,-7732.108299938669,-9086.643523618413,-10349.134517479351,-15571.37327990187,-15817.507338886871,-9213.890592529518,-22204.690933125323,0.0
2494.0663685460963,-7734.525815613817,-9088.715679911396,-10353.910004108586,-15573.14771258954,-15817.340613667893,-9220.726326507523,-22207.33471874051,0.0
2488.8740688694243,-7742.052268356149,-9097.814113289787,-10361.853269898356,-15579.780994515932,-15821.60401569599,-9220.369058181146,-22203.60721920198,0.0
2492.6611131290156,-7739.753842123127,-9096.635127812744,-10359.411936334785,-15576.672760076455,-15818.972139025014,-9214.319314521172,-22197.271660880902,0.0
2491.1248593255964,-7736.5979719068,-9095.789592773654,-10359.554843665333,-15577.125299956533,-15817.03098111837,-9211.437350021733,-22198.569735800073,0.0
2506.6898494114002,-7734.299545673778,-9091.264193972884,-10355.612983130979,-15575.684317706813,-15815.185094765424,-9207.555034208443,-22196.997755164015,0.0
2498.818037286904,-7737.133874396365,-9089.596941783126,-10355.088989585627,-15576.410763303778,-15813.315390524052,-9207.352582156827,-22199.891628607664,0.0
2490.743773110795,-7738.360495650258,-9093.360168154293,-10355.648709963618,-15572.599901155761,-15809.897523535052,-9210.282182433115,-22200.284623766678,0.0
2481.8954275608694,-7737.3363264479785,-9097.718841736085,-10357.816137810301,-15575.696226651025,-15817.316795779469,-9212.092341953423,-22202.27341745018,0.0
2485.122751442471,-7732.787109758784,-9094.312883691297,-10358.292495578804,-15576.196402307953,-15818.841140638679,-9210.75854020162,-22208.525613161764,0.0
2488.4215289893473,-7735.1450807128695,-9091.371374470795,-10358.828398068368,-15573.254893087453,-15813.756021459916,-9210.29409137733,-22208.91860832078,0.0
2490.4817763381184,-7737.836502104906,-9091.419010247646,-10360.114564043324,-15574.481514341345,-15814.815917494832,-9205.62578524601,-22205.1434730054,0.0
2494.8404499199123,-7733.751734240001,-9088.644226246122,-10354.3982708213,-15573.588343525404,-15817.45970311002,-9207.59076104108,-22200.53471159514,0.0
2499.1872145574935,-7734.07327573374,-9087.70341965333,-10352.766745464181,-15572.766626374738,-15818.781595917615,-9209.865369385678,-22204.690933125323,0.0
2507.6425649484045,-7732.5012950976825,-9085.643172304559,-10350.885132278596,-15570.372928588016,-15812.4103107639,-9204.899339649042,-22205.6198307739,0.0
2484.8964815024324,-7741.921269969811,-9095.146509786175,-10357.589867870263,-15574.707784281385,-15815.744815143415,-9206.435593452461,-22207.10844880047,0.0
2488.7668883715114,-7736.419337743612,-9090.001845886352,-10353.112104846345,-15572.147361275685,-15818.507690200726,-9214.378859242233,-22203.73821758832,0.0
2496.662518384432,-7731.965392608118,-9087.012700889001,-10351.540124210287,-15570.039478150064,-15816.530805461443,-9208.34102452647,-22203.69058181147,0.0
2502.1287237779934,-7728.9524297223425,-9082.677845195634,-10349.336969530967,-15565.68080456827,-15808.885263276985,-9196.920347026635,-22210.264319016795,0.0
2488.064260662971,-7729.86941842671,-9084.595185213853,-10349.968143574231,-15564.537545923866,-15809.933250367687,-9201.219475887365,-22210.1690474631,0.0
2487.1115451259666,-7737.098147563727,-9091.823914350873,-10355.743981517318,-15569.551211437349,-15818.662506475488,-9206.245050345062,-22211.979206983407,0.0
2482.2288779988207,-7740.504105608517,-9095.241781339875,-10359.745386772736,-15574.45769645292,-15820.365485497885,-9210.567997094216,-22215.432800805043,0.0
2484.9322083350703,-7735.228443322358,-9090.22811582639,-10355.66061890783,-15571.385188846083,-15814.399104447395,-9208.019483032731,-22214.027545387962,0.0
2487.5164492291938,-7735.728618979284,-9090.680655706468,-10356.279884006883,-15577.601657725034,-15815.840086697113,-9208.817382294972,-22208.418432663853,0.0
2489.8029665180034,-7732.85856342406,-9088.53704574821,-10350.944676999661,-15570.658743249116,-15809.147260049662,-9202.886728077121,-22202.0114206775,0.0
2496.340976890694,-7726.594458768258,-9084.261734775902,-10346.288279812554,-15561.738944033916,-15814.53010283373,-9201.148022222089,-22206.44154792457,0.0
2491.3392203214225,-7727.761535301088,-9086.393435789949,-10349.07497275829,-15565.53789723772,-15817.793153547973,-9207.876575702181,-22209.704598638804,0.0
2491.077223548746,-7728.309346734864,-9088.668044134547,-10351.004221720725,-15569.098671557273,-15816.209263967703,-9211.877980957599,-22211.145580888526,0.0
2488.838342036787,-7725.832286338655,-9090.680655706468,-10354.136274048624,-15573.016714203202,-15817.638337273207,-9210.72281336898,-22213.78936650371,0.0
2487.790354946082,-7720.711440327257,-9086.619705729989,-10351.885483592452,-15568.038775522356,-15813.732203571493,-9202.338916643346,-22207.04890407941,0.0
2501.6285481210666,-7715.471504873735,-9073.09114510453,-10339.714542607224,-15555.653473541302,-15801.192085315677,-9188.750811296824,-22198.772187851686,0.0
2497.7462323077743,-7726.296735162944,-9079.986423803599,-10348.884429650889,-15570.099022871127,-15809.659344650801,-9195.562727386403,-22204.17884852418,0.0
2485.0393888329827,-7733.6564626863,-9087.965416426006,-10355.208079027754,-15571.08746524077,-15806.825015928214,-9204.053804609952,-22211.979206983407,0.0
2488.242894826159,-7731.762940556505,-9087.358060271166,-10351.87357464824,-15566.288160723112,-15807.51573469254,-9204.50634449003,-22210.943128836912,0.0
2496.495793165457,-7720.473261443007,-9077.497454463173,-10341.381794796982,-15556.76100535307,-15805.669848339594,-9198.730506546943,-22201.415973466872,0.0
2497.317510316123,-7714.709332444132,-9073.04350932768,-10336.737306554087,-15553.009687926116,-15799.94164617336,-9195.812815214867,-22200.42753109723,0.0
2501.497549734728,-7716.388493578102,-9072.90060199713,-10334.164974604177,-15549.699001435027,-15794.308715560823,-9190.656242370831,-22201.058705140495,0.0
2499.8898422660336,-7727.7853531895125,-9084.583276269643,-10346.514549752592,-15560.750501664274,-15806.229568717585,-9201.683924711655,-22208.204071668024,0.0
2484.9679351677078,-7734.204274120078,-9092.359816840439,-10356.565698667984,-15573.33825569694,-15821.9017393013,-9214.867125954948,-22216.68323994736,0.0
2476.048135952507,-7736.169249915149,-9093.407803931143,-10357.697048368176,-15572.6356279884,-15821.080022150636,-9217.641909956474,-22219.6604760005,0.0
2481.1213461870534,-7739.170303856711,-9094.51533574291,-10359.876385159074,-15577.125299956533,-15819.472314681941,-9215.748387826676,-22223.923878028592,0.0
2486.5399158037644,-7736.050160473023,-9090.049481663204,-10350.789860724897,-15568.098320243418,-15813.30348157984,-9210.186910879416,-22216.38551634205,0.0
2490.9938609392584,-7733.239649638861,-9085.154905591844,-10345.3832000524,-15560.655230110575,-15808.968625886471,-9204.935066481681,-22210.633496287388,0.0
2489.409971358989,-7729.464514323482,-9084.476095771728,-10344.621027622796,-15559.202338916642,-15807.420463138838,-9204.732614430068,-22206.167642207678,0.0
2488.2548037703714,-7726.534914047194,-9082.93984196831,-10344.537665013308,-15563.799191382686,-15812.660398592363,-9217.010735913207,-22208.597066827042,0.0
2498.3297705741898,-7717.853293716245,-9073.317415044568,-10332.354815083869,-15557.618449336374,-15807.22992003144,-9207.650305762143,-22202.332962171236,0.0
2484.8964815024324,-7731.572397449104,-9087.107972442704,-10344.656754455433,-15568.229318629756,-15815.851995641326,-9207.185856937853,-22207.906348062712,0.0
2471.2964672116996,-7745.898857336802,-9103.268409739134,-10367.212294794004,-15581.102887323523,-15831.750436165083,-9219.273435313593,-22220.732280979628,0.0
2479.501729774147,-7746.232307774754,-9101.13670872509,-10366.831208579202,-15577.982743939836,-15824.140620813263,-9216.081838264628,-22218.50530841188,0.0
2480.656897362764,-7745.636860564126,-9101.648793326229,-10366.747845969716,-15577.053846291255,-15821.782649859177,-9219.999880910558,-22217.254869269564,0.0
2491.8393959783493,-7737.312508559554,-9093.81270803437,-10359.900203047499,-15573.397800418004,-15818.400509702811,-9214.557493405422,-22211.872026485493,0.0
2495.6026223495155,-7731.22703806694,-9085.238268201332,-10352.469021858868,-15567.610053530703,-15818.281420260688,-9210.710904424768,-22205.679375494965,0.0
2481.9549722819324,-7733.942277347402,-9086.083803240424,-10349.77760046683,-15564.632817477566,-15818.329056037539,-9211.496894742797,-22205.738920216027,0.0
2490.184052732805,-7732.084482050243,-9085.821806467748,-10349.02733698144,-15564.489910147016,-15817.352522612106,-9209.055561179224,-22213.134374572022,0.0
2506.332581085024,-7723.819674766733,-9080.09360430151,-10346.395460310467,-15564.513728035441,-15811.445686282685,-9201.969739372755,-22205.22683561489,0.0
2498.210681132064,-7723.700585324608,-9077.9976301201,-10344.621027622796,-15561.131587879076,-15807.265646864076,-9199.909492023984,-22200.725254702545,0.0
2492.3395716352766,-7718.9131897511625,-9071.673980743237,-10337.856747310067,-15556.284647584567,-15803.907324596137,-9197.980243061551,-22199.72490338869,0.0
2475.524142407155,-7728.38080040014,-9081.379770276466,-10347.884078337034,-15567.979230801293,-15812.708034369214,-9210.341727154178,-22214.087090109024,0.0
2484.7416652276693,-7731.119857569027,-9082.999386689373,-10350.230140346908,-15566.943152654801,-15811.874408274334,-9207.650305762143,-22213.12246562781,0.0
2474.583335814363,-7727.5829011379,-9080.522326293161,-10348.443798715025,-15565.716531400907,-15811.76722777642,-9203.267814291923,-22209.21633192609,0.0
2485.384748215147,-7716.924396067667,-9073.317415044568,-10341.88197045391,-15557.654176169011,-15805.22921740373,-9197.69442840045,-22201.427882411084,0.0
2482.8243252094485,-7725.641743231254,-9082.606391530358,-10350.373047677458,-15566.550157495787,-15814.089471897867,-9207.054858551515,-22209.573600252468,0.0
2478.6800126234807,-7730.500592469974,-9087.250879773253,-10352.469021858868,-15569.491666716287,-15817.507338886871,-9215.15294061605,-22211.324215051714,0.0
2483.598406583264,-7731.965392608118,-9085.476447085584,-10350.575499729071,-15565.454534628232,-15811.743409887995,-9207.650305762143,-22206.513001589843,0.0
2495.828892289554,-7730.869769740563,-9083.380472904175,-10349.87287202053,-15564.478001202802,-15809.683162539222,-9204.113349331015,-22205.500741331776,0.0
2501.688092842129,-7725.677470063892,-9080.522326293161,-10347.07427013058,-15562.27484652348,-15810.576333355166,-9213.164146932553,-22200.53471159514,0.0
2491.803669145712,-7724.617574028975,-9083.26138346205,-10349.801418355255,-15565.252082576619,-15815.423273649674,-9213.10460221149,-22202.499687390216,0.0
2496.1623427275053,-7721.84279002745,-9080.879594619539,-10346.312097700977,-15562.012849750805,-15808.611357560096,-9198.170786168952,-22202.559232111274,0.0
2477.858295472815,-7729.702693207733,-9085.154905591844,-10348.908247539313,-15563.513376721585,-15810.814512239416,-9204.04189566574,-22207.882530174287,0.0
2492.708748905866,-7727.8568068547875,-9080.165057966786,-10342.667960771938,-15557.868537164837,-15807.325191585142,-9203.327359012987,-22203.97639647257,0.0
2498.3893152952523,-7721.5569753663485,-9075.23475506279,-10336.951667549913,-15551.21143735002,-15801.692260972604,-9203.041544351885,-22195.044688313155,0.0
2497.7819591404123,-7721.5212485337115,-9079.641064421432,-10344.954478060747,-15558.523529096528,-15805.014856407906,-9201.731560488504,-22192.901078354895,0.0
2482.907687818936,-7726.320553051369,-9086.786430948963,-10353.910004108586,-15569.670300879476,-15814.089471897867,-9203.458357399324,-22200.42753109723,0.0
2484.8726636140073,-7730.000416813047,-9087.46524076908,-10352.326114528316,-15566.311978611535,-15809.980886144538,-9205.780601520773,-22202.1066922312,0.0
2486.277919031088,-7732.34647882292,-9089.644577559977,-10354.898446478228,-15571.46855145557,-15815.506636259164,-9208.90074490446,-22199.30809034125,0.0
2485.753925485736,-7735.347532764483,-9090.454385766428,-10354.422088709725,-15570.551562751203,-15810.933601681543,-9199.528405809184,-22197.366932434605,0.0
2500.1399300944972,-7726.51109615877,-9079.926879082535,-10342.274965612924,-15556.725278520433,-15798.322029760451,-9193.276210097594,-22186.32734114957,0.0
2492.220482193151,-7731.596215337529,-9087.548603378567,-10350.05150618372,-15562.441571742456,-15809.111533217023,-9200.481121346187,-22190.9122846714,0.0
2482.455147938859,-7725.15347651854,-9085.381175531882,-10350.206322458482,-15562.262937579268,-15809.302076324424,-9198.516145551117,-22193.88952072454,0.0
2480.811713637527,-7724.8795708016505,-9088.31077580817,-10353.505100005359,-15568.348408071883,-15809.349712101273,-9196.967982803484,-22211.39566871699,0.0
2487.957080165058,-7720.592350885132,-9078.473987888603,-10346.18109931464,-15562.929838455171,-15805.217308459518,-9196.253446150731,-22208.144526946966,0.0
2485.861105983649,-7718.508285647936,-9069.697096003953,-10333.629072114612,-15550.78271535837,-15802.41870656957,-9196.646441309746,-22203.22613298718,0.0
2489.4695160800516,-7719.46100118494,-9069.268374012303,-10330.4851108425,-15550.187268147742,-15806.515383378686,-9195.860450991717,-22198.79600574011,0.0
2495.53116868424,-7719.615817459703,-9070.018637497693,-10332.962171238709,-15548.377108627434,-15802.347252904292,-9191.311234302522,-22191.972180706318,0.0
2497.639051809862,-7729.059610220255,-9080.581871014225,-10347.014725409519,-15560.9648626601,-15809.99279508875,-9202.600913416021,-22203.559583425133,0.0
2489.445698191627,-7726.356279884007,-9078.795529382342,-10344.668663399645,-15562.536843296157,-15808.992443774896,-9206.459411340888,-22207.20372035417,0.0
2487.2901792891553,-7725.29638384909,-9076.008836436606,-10341.357976908557,-15560.250326007348,-15808.134999791595,-9205.828237297621,-22207.001268302556,0.0
2483.0029593726367,-7724.6533008616125,-9074.948940401688,-10336.356220339285,-15552.819144818715,-15801.930439856855,-9198.754324435367,-22200.487075818295,0.0
2490.2435974538676,-7723.307590165594,-9078.164355339077,-10341.262705354857,-15555.558201987602,-15799.227109520603,-9191.287416414098,-22189.233123537433,0.0
2500.3542910903234,-7725.15347651854,-9082.999386689373,-10348.443798715025,-15562.441571742456,-15798.59593547734,-9193.716841033458,-22205.203017726464,0.0
2490.1364169559547,-7726.523005102982,-9084.24982583169,-10348.146075109711,-15555.355749935989,-15802.38297973693,-9201.064659612603,-22210.311954793648,0.0
2469.5934881893045,-7730.976950238476,-9082.927933024099,-10349.301242698328,-15562.69165957092,-15817.173888448919,-9206.125960902937,-22212.419837919268,0.0
2482.574237380985,-7731.489034839616,-9079.58151970037,-10348.146075109711,-15562.775022180407,-15811.49332205953,-9201.350474273702,-22209.62123602932,0.0
2487.4092687312805,-7732.167844659732,-9081.72512965863,-10349.551330526792,-15564.716180087054,-15811.314687896343,-9201.159931166303,-22209.192514037666,0.0
2487.3020882333676,-7728.321255679078,-9079.998332747811,-10346.204917203064,-15564.478001202802,-15811.993497716458,-9202.196009312795,-22206.120006430832,0.0
2496.150433783293,-7723.117047058193,-9075.472933947041,-10341.500884239107,-15559.09515841873,-15806.872651705062,-9205.459060027033,-22203.559583425133,0.0
2484.4796684549933,-7725.29638384909,-9079.795880696196,-10344.883024395473,-15561.738944033916,-15809.337803157061,-9198.53996343954,-22209.95468646727,0.0
2489.540969745327,-7724.808117136375,-9078.628804163367,-10344.692481288072,-15561.465038317028,-15807.14655742195,-9197.78969995415,-22206.215277984527,0.0
2496.995968822384,-7725.701287952316,-9079.10516193187,-10345.14502116815,-15559.178521028218,-15801.3111747578,-9191.680411573112,-22205.78655599288,0.0
2486.6351873574645,-7731.727213723868,-9085.583627583497,-10351.87357464824,-15565.001994748156,-15808.992443774896,-9203.148724849798,-22214.027545387962,0.0
2478.8705557308817,-7730.976950238476,-9086.405344734161,-10352.528566579931,-15565.132993134494,-15809.718889371861,-9204.87552176062,-22213.372553456273,0.0
2489.850602294853,-7730.0837794225345,-9084.380824218028,-10350.551681840647,-15562.441571742456,-15809.647435706589,-9197.432431627774,-22209.144878260817,0.0
2498.3297705741898,-7730.834042907926,-9082.38012159032,-10346.717001804205,-15558.666436427076,-15806.134297163882,-9193.145211711257,-22202.213872729113,0.0
2482.121697500908,-7734.251909896928,-9084.952453540232,-10350.134868793206,-15562.632114849857,-15811.159871621583,-9206.61422761565,-22205.167290893824,0.0
2468.8313157597013,-7732.429841432408,-9085.893260133022,-10350.063415127932,-15564.894814250243,-15808.885263276985,-9199.040139096467,-22205.727011271814,0.0
2481.3595250713047,-7730.941223405839,-9085.440720252946,-10346.32400664519,-15557.725629834287,-15803.835870930861,-9197.563430014112,-22203.54767448092,0.0
2480.5735347532764,-7735.526166927671,-9091.168922419183,-10352.373750305167,-15562.286755467694,-15810.492970745678,-9202.720002858146,-22210.621587343176,0.0
2480.72835102804,-7730.953132350051,-9084.15455427799,-10352.516657635717,-15566.442976997872,-15816.19735502349,-9201.588653157953,-22212.22929481187,0.0
2485.194205107746,-7737.241054894278,-9090.799745148594,-10358.578310239905,-15572.778535318952,-15818.245693428049,-9205.780601520773,-22208.716156269165,0.0
2492.4586610774018,-7739.1464859682865,-9091.049832977058,-10354.57690498449,-15566.99078843165,-15814.792099606408,-9203.756081004638,-22210.311954793648,0.0
2508.023651163206,-7735.085535991807,-9084.976271428655,-10346.085827760939,-15560.619503277936,-15815.220821598063,-9208.793564406547,-22207.68007812267,0.0
2480.799804693315,-7739.3489380199,-9089.192037679899,-10349.396514252028,-15565.371172018744,-15825.641147784043,-9221.059776945474,-22212.729470468796,0.0
2466.568616359317,-7734.9188107728305,-9086.429162622588,-10348.396162938174,-15562.203392858206,-15819.115046355564,-9212.783060717753,-22211.943480150767,0.0
2481.978790170357,-7733.644553742088,-9084.76191043283,-10349.432241084667,-15562.120030248718,-15814.851644327471,-9208.829291239186,-22204.667115236898,0.0
2497.6628696982866,-7729.226335439232,-9080.522326293161,-10342.346419278198,-15558.142442881726,-15807.051285868252,-9201.040841724178,-22199.129456178063,0.0
2504.5581483973538,-7730.988859182688,-9088.572772580847,-10349.26551586569,-15562.810749013046,-15807.170375310376,-9202.541368694958,-22199.284272452824,0.0
2494.4355458166856,-7729.393060658207,-9088.941949851434,-10354.57690498449,-15566.788336380037,-15813.613114129366,-9208.305297693832,-22198.403010581096,0.0
2486.3731905847885,-7725.7846505618045,-9080.403236851036,-10354.422088709725,-15566.966970543226,-15816.614168070928,-9202.350825587557,-22200.165534324555,0.0
2505.951494870222,-7716.66239929499,-9068.74438046695,-10344.656754455433,-15561.28640415384,-15806.825015928214,-9196.134356708606,-22191.495822937817,0.0
2493.9234612155456,-7726.332461995581,-9076.16365271137,-10349.753782578404,-15568.43177068137,-15808.813809611709,-9209.591463668788,-22208.358887942788,0.0
2482.014517002995,-7731.346127509066,-9086.083803240424,-10355.267623748816,-15566.109526559922,-15815.387546817035,-9212.604426554564,-22214.30145110485,0.0
2476.500675832584,-7738.098498877582,-9096.623218868532,-10364.092151410317,-15571.206554682894,-15827.332217862224,-9220.464329734847,-22216.63560417051,0.0
2475.464597686092,-7740.111110449503,-9098.15947267195,-10363.49670419969,-15576.69657796488,-15830.107001863747,-9221.202684276026,-22218.159949029716,0.0
2484.3129432360174,-7727.8568068547875,-9083.5948339,-10348.777249152976,-15565.013903692368,-15817.900334045884,-9210.341727154178,-22209.966595411483,0.0
2493.2446513954305,-7719.853996343954,-9073.019691439255,-10337.773384700578,-15553.057323702966,-15806.229568717585,-9198.801960212217,-22195.366229806896,0.0
2489.398062414776,-7724.820026080588,-9078.08099272959,-10345.585652104013,-15561.596036703364,-15813.16057424929,-9203.9108972794,-22202.654503664977,0.0
2480.82362258174,-7725.713196896529,-9078.50971472124,-10346.895635967394,-15557.7375387785,-15808.563721783245,-9207.30494637998,-22203.38094926194,0.0
2492.244300081576,-7718.365378317385,-9069.506552896553,-10340.52435081368,-15549.365550997076,-15795.999785639004,-9195.562727386403,-22194.758873652056,0.0
2499.5802097165074,-7720.925801323084,-9072.376608451777,-10340.619622367378,-15553.986221351544,-15801.847077247365,-9200.54066606725,-22205.977099100277,0.0
2479.6922728815475,-7725.403564347002,-9078.057174841164,-10346.37164242204,-15561.965213973956,-15812.350766042837,-9207.138221161003,-22219.67238494471,0.0
2488.4096200451345,-7726.820728708297,-9077.545090240024,-10347.49108317802,-15560.059782899947,-15807.646733078876,-9195.157823283176,-22210.08568485361,0.0
2499.258668222769,-7730.524410358399,-9081.11777350379,-10349.194062200415,-15562.048576583442,-15807.956365628404,-9188.524541356786,-22208.894790432354,0.0
2495.5788044610904,-7732.81092764721,-9084.583276269643,-10351.301945326037,-15563.310924669973,-15811.028873235242,-9192.00195306685,-22207.787258620585,0.0
2504.5105126205035,-7726.487278270345,-9077.545090240024,-10342.012968840247,-15552.878689539779,-15805.455487343768,-9193.431026372356,-22201.951875956438,0.0
2499.222941390131,-7718.567830368998,-9072.043158013827,-10338.464103464907,-15549.437004662352,-15806.217659773372,-9197.301433241435,-22199.08182040121,0.0
2468.5455010986,-7724.641391917399,-9078.628804163367,-10344.859206507048,-15557.451724117398,-15813.708385683069,-9208.686383908635,-22204.667115236898,0.0
2476.7745815494727,-7722.986048671855,-9075.175210341726,-10340.024175156752,-15553.617044080956,-15806.372476048135,-9202.993908575034,-22199.891628607664,0.0
2483.443590308501,-7728.166439404314,-9083.106567187286,-10344.192305631144,-15554.807938502212,-15802.025711410553,-9199.683222083946,-22201.79705968167,0.0
2485.8253791510115,-7732.739473981934,-9088.72758885561,-10345.680923657712,-15553.593226192532,-15802.644976509608,-9202.946272798185,-22204.155030635757,0.0
2495.9479817316796,-7735.240352266569,-9090.097117440053,-10348.586706045577,-15556.368010194057,-15807.396645250414,-9208.019483032731,-22199.39145295074,0.0
2498.401224239465,-7737.229145950066,-9091.526190745559,-10356.363246616373,-15561.345948874901,-15809.909432479264,-9202.946272798185,-22204.452754241072,0.0
2485.58720026676,-7742.028450467724,-9097.373482353922,-10364.568509178818,-15574.064701293906,-15826.76058854002,-9214.104953525344,-22214.420540546977,0.0
2489.4576071358397,-7734.668722944367,-9089.787484890527,-10356.672879165897,-15564.239822318552,-15820.008217171506,-9208.841200183399,-22208.204071668024,0.0
2508.5238268201333,-7719.1037328585635,-9072.912510941342,-10339.964630435688,-15549.75854615609,-15800.953906431427,-9199.206864315443,-22193.496525565526,0.0
2470.9391988853226,-7733.477828523112,-9088.12023270077,-10357.48268737235,-15569.563120381563,-15812.56512703866,-9206.876224388327,-22211.27657927486,0.0
2480.883167302803,-7731.298491732215,-9085.095360870782,-10352.95728857158,-15564.787633752328,-15805.955663000695,-9199.290226924933,-22208.477977384915,0.0
2489.9577827927665,-7728.607070340179,-9082.725480972484,-10347.455356345383,-15563.965916601663,-15805.348306845855,-9198.051696726827,-22201.868513346948,0.0
2490.1959616770173,-7731.64385111438,-9084.785728321256,-10344.54957395752,-15555.760654039215,-15803.990687205625,-9201.814923097993,-22204.26221113367,0.0
2491.8751228109872,-7729.535967988758,-9080.522326293161,-10346.621730250505,-15556.499008580393,-15812.32694815441,-9206.554682894588,-22207.38235451736,0.0
2490.6961373339445,-7722.9145950065795,-9075.28239083964,-10342.691778660363,-15552.09269922175,-15806.265295550224,-9202.743820746571,-22205.75082916024,0.0
2479.1920972246207,-7724.105489427834,-9076.759099921996,-10345.15693011236,-15554.879392167486,-15807.27755580829,-9204.851703872193,-22207.298991907872,0.0
2485.015570944558,-7718.555921424786,-9074.782215182711,-10344.894933339683,-15557.523177782672,-15809.397347878124,-9204.375346103692,-22202.547323167066,0.0
2489.6719681316654,-7722.0095152464255,-9082.403939478745,-10351.004221720725,-15562.322482300331,-15812.386492875474,-9204.51825343424,-22203.64294603462,0.0
2495.0190840831006,-7724.569938252124,-9084.226007943265,-10350.325411900609,-15558.82125270184,-15807.349009473566,-9195.812815214867,-22205.917554379215,0.0
2490.017327513829,-7723.438588551932,-9081.11777350379,-10349.670419968917,-15559.65487879672,-15806.44392971341,-9193.716841033458,-22206.63209103197,0.0
2482.9791414842116,-7723.1408649466175,-9075.711112831292,-10345.335564275549,-15560.250326007348,-15808.075455070531,-9200.564483955675,-22205.84610071394,0.0
2487.980898053483,-7726.403915660857,-9078.616895219153,-10345.89528465354,-15559.261883637706,-15807.015559035613,-9203.565537897237,-22202.606867888127,0.0
2482.455147938859,-7725.105840741689,-9080.653324679499,-10347.788806783336,-15560.786228496912,-15805.336397901641,-9204.08953144259,-22206.096188542404,0.0
2481.704884453469,-7726.213372553456,-9082.28485003662,-10348.146075109711,-15561.369766763326,-15808.289816066357,-9204.79215915113,-22208.835245711292,0.0
2491.9942122531124,-7727.439993807349,-9084.750001488617,-10346.359733477828,-15560.155054453648,-15809.861796702415,-9206.185505623998,-22207.418081349995,0.0
2503.1886198129105,-7721.854698971662,-9078.724075717068,-10338.654646572308,-15550.258721813016,-15800.620455993474,-9192.383039281653,-22200.999160419433,0.0
2493.2684692838557,-7724.117398372047,-9083.13038507571,-10342.405963999261,-15551.080438963683,-15800.251278722882,-9190.834876534022,-22200.10598960349,0.0
2478.8824646750945,-7739.58711690415,-9097.528298628686,-10359.102303785257,-15570.277657034314,-15817.888425101672,-9203.779898893063,-22211.455213438054,0.0
2489.1837014189505,-7725.856104227079,-9077.818995956914,-10341.33415902013,-15557.237363121572,-15807.206102143013,-9196.872711249784,-22201.40406452266,0.0
2484.3129432360174,-7733.120560196736,-9084.52373154858,-10348.288982440261,-15563.727737717412,-15814.88737116011,-9209.97254988359,-22210.907402004275,0.0
2494.054459601884,-7727.1065433693975,-9078.628804163367,-10344.192305631144,-15560.45277805896,-15809.206804770722,-9209.758188887763,-22204.107394858907,0.0
2490.2316885096548,-7731.119857569027,-9082.665936251422,-10350.682680226984,-15569.384486218372,-15814.958824825386,-9217.784817287022,-22210.490588956833,0.0
2502.378811606457,-7727.72580846845,-9079.843516473047,-10349.098790646716,-15562.798840068834,-15811.040782179454,-9206.042598293448,-22213.467825009975,0.0
2501.3903692368153,-7721.604611143199,-9074.806033071138,-10347.82453361597,-15556.522826468818,-15808.182635568442,-9201.040841724178,-22212.479382640333,0.0
2486.1945564216003,-7725.677470063892,-9082.975568800948,-10354.707903370825,-15564.56136381229,-15812.958122197677,-9204.804068095342,-22214.170452718514,0.0
2473.297169839408,-7719.115641802775,-9076.628101535658,-10347.312449014833,-15561.643672480215,-15810.671604908868,-9205.661512078646,-22213.575005507886,0.0
2478.2631995760416,-7717.186392840343,-9075.210937174365,-10342.608416050874,-15556.24892075193,-15806.253386606011,-9200.004763577685,-22214.4443584354,0.0
2499.270577166981,-7713.530346967089,-9071.900250683275,-10334.819966535868,-15549.198825778101,-15802.00189352213,-9197.480067404624,-22203.77394442096,0.0
2505.534681822783,-7728.749977670729,-9085.893260133022,-10342.834685990914,-15556.594280134095,-15805.681757283806,-9198.0278788384,-22203.09513460084,0.0
2484.455850566568,-7742.814440785753,-9095.360870782,-10352.290387695677,-15563.191835227848,-15809.254440547573,-9206.852406499902,-22204.58375262741,0.0
2484.4796684549933,-7738.038954156519,-9085.726534914047,-10352.278478751467,-15561.01249843695,-15806.515383378686,-9201.719651544292,-22209.10915142818,0.0
2479.65654604891,-7728.738068726517,-9075.127574564876,-10348.062712500223,-15560.321779672622,-15804.788586467868,-9200.421576625125,-22211.705301266516,0.0
2477.2866661506127,-7727.701990580025,-9078.140537450652,-10355.374804246729,-15570.182385480615,-15812.862850643976,-9203.315450068774,-22213.17010140466,0.0
2491.5773992056734,-7724.772390303738,-9075.687294942865,-10348.824884929827,-15561.596036703364,-15807.718186744154,-9198.039787782613,-22215.825795964058,0.0
2504.712964672117,-7723.224227556106,-9073.436504486694,-10339.988448324113,-15552.831053762928,-15802.537796011693,-9194.19319880196,-22212.396020030843,0.0
2499.830297544971,-7722.735960843392,-9075.318117672277,-10342.656051827726,-15554.260127068434,-15798.310120816239,-9190.334700877094,-22211.145580888526,0.0
2488.7668883715114,-7727.999714185338,-9083.356655015748,-10354.433997653938,-15565.77607612197,-15800.69190965875,-9198.659052881665,-22211.43139554963,0.0
2486.242192198451,-7737.431598001679,-9089.418307619939,-10360.23365348545,-15571.432824622932,-15811.957770883824,-9208.376751359108,-22216.278335844137,0.0
2505.1416866637687,-7727.3685401420735,-9078.724075717068,-10349.68232891313,-15563.215653116273,-15806.039025610185,-9203.303541124562,-22203.476220815643,0.0
2472.5707242424423,-7732.132117827094,-9083.702014397912,-10350.885132278596,-15561.143496823288,-15808.158817680016,-9209.269922175048,-22211.19321666538,0.0
2484.694029450819,-7725.90374000393,-9076.568556814595,-10342.727505493,-15556.820550074133,-15803.335695273934,-9199.730857860795,-22209.001970930265,0.0
2488.6835257620237,-7722.188149409613,-9070.637902596745,-10336.296675618223,-15551.842611393286,-15799.393834739582,-9200.111944075597,-22207.23944718681,0.0
2482.633782102048,-7727.237541755735,-9077.140186136798,-10346.22873509149,-15558.666436427076,-15800.310823443946,-9206.590409727225,-22210.51440684526,0.0
2484.1224001286164,-7727.046998648335,-9078.997981433955,-10353.767096778036,-15562.667841682494,-15805.50312312062,-9196.312990871795,-22214.849262538628,0.0
2483.9914017422784,-7727.07081653676,-9079.867334361472,-10354.67217653819,-15564.216004430127,-15809.9451593119,-9201.48147266004,-22214.5396299891,0.0
2482.2288779988207,-7728.118803627464,-9082.832661470396,-10355.863070959444,-15565.621259847208,-15811.171780565795,-9203.136815905586,-22211.288488219074,0.0
2485.110842498258,-7731.1079486248145,-9087.393787103805,-10359.924020935925,-15569.682209823688,-15814.720645941135,-9208.329115582259,-22207.882530174287,0.0
2490.100690123317,-7732.548930874534,-9086.155256905698,-10356.958693826999,-15566.00234606201,-15811.648138334296,-9202.469915029684,-22208.049255393264,0.0
2489.60051446639,-7729.8217826498585,-9081.272589778553,-10350.587408673284,-15558.428257542826,-15804.812404356293,-9196.146265652818,-22209.132969316604,0.0
2484.515395287631,-7731.512852728041,-9081.451223941742,-10349.515603694153,-15557.118273679447,-15805.157763738454,-9199.314044813356,-22206.751180474093,0.0
2485.134660386683,-7732.560839818745,-9084.10691850114,-10350.039597239505,-15560.250326007348,-15802.918882226495,-9201.600562102167,-22209.192514037666,0.0
2485.146569330896,-7732.941926033548,-9085.142996647632,-10344.192305631144,-15554.796029558,-15798.905568026867,-9201.541017381103,-22212.419837919268,0.0
2492.7802025711408,-7727.606719026325,-9079.545792867733,-10337.130301713101,-15543.756438272963,-15800.17982505761,-9197.575338958324,-22208.442250552274,0.0
2492.8159294037787,-7724.772390303738,-9077.140186136798,-10341.56042896017,-15548.984464782274,-15800.894361710363,-9194.383741909362,-22206.000916988705,0.0
2478.060747524428,-7735.049809159168,-9088.77522463246,-10358.137679304042,-15564.585181700715,-15809.43307471076,-9200.147670908236,-22208.704247324953,0.0
2479.4540939972967,-7733.3349211925615,-9085.857533300386,-10360.174108764388,-15570.992193687069,-15814.780190662195,-9204.923157537467,-22207.94207489535,0.0
2485.861105983649,-7730.143324143597,-9085.107269814993,-10357.280235320737,-15568.812856896171,-15814.470558112671,-9203.553628953025,-22207.537170792122,0.0
2490.922407273983,-7726.04664733448,-9082.927933024099,-10349.789509411043,-15559.202338916642,-15803.788235154014,-9198.373238220565,-22203.70249075568,0.0
2495.114355636801,-7729.428787490845,-9088.203595310257,-10356.827695440661,-15565.66889562406,-15812.910486420828,-9203.220178515074,-22205.32210716859,0.0
2489.3504266379264,-7735.216534378144,-9088.12023270077,-10358.661672849392,-15566.919334766377,-15815.971085083453,-9209.913005162527,-22210.6454052316,0.0
2487.5164492291938,-7734.156638343227,-9085.357357643457,-10357.708957312389,-15567.288512036965,-15810.409608136191,-9203.756081004638,-22207.549079736335,0.0
2483.5864976390517,-7736.5027003531,-9086.893611446876,-10358.685490737818,-15567.812505582318,-15808.789991723284,-9199.814220470284,-22212.431746863484,0.0
2483.6460423601143,-7739.384664852537,-9090.037572718991,-10363.008437486973,-15570.325292811165,-15814.553920722157,-9207.352582156827,-22217.23105138114,0.0
2487.7784460018697,-7730.441047748912,-9079.140888764507,-10353.42173739587,-15561.977122918168,-15809.516437320248,-9203.732263116213,-22210.204774295733,0.0
2484.3129432360174,-7731.917756831268,-9080.057877468873,-10351.694940485051,-15561.226859432776,-15807.98018351683,-9200.993205947327,-22213.348735567848,0.0
2492.2323911373637,-7737.550687443804,-9087.917780649155,-10356.053614066845,-15567.800596638104,-15814.518193889518,-9204.196711940504,-22218.171857973928,0.0
2494.626088924086,-7735.061718103381,-9087.107972442704,-10352.504748691505,-15564.668544310203,-15810.838330127843,-9198.647143937455,-22212.94383146462,0.0
2487.992806997696,-7737.705503718568,-9090.942652479145,-10357.970954085065,-15566.764518491613,-15811.326596840556,-9199.587950530246,-22211.44330449384,0.0
2486.5160979153393,-7732.227389380794,-9082.856479358821,-10352.95728857158,-15562.501116463518,-15812.23167660071,-9204.172894052077,-22207.263265075235,0.0
2472.785085238268,-7738.717763976634,-9086.941247223727,-10354.898446478228,-15565.192537855555,-15818.281420260688,-9217.308459518521,-22213.88463805741,0.0
2485.563382378335,-7737.919864714393,-9086.643523618413,-10355.708254684681,-15563.382378335247,-15815.280366319123,-9210.639450759492,-22211.467122382266,0.0
2504.9511435563677,-7724.748572415312,-9073.531776040394,-10341.953424119185,-15549.484640439203,-15801.811350414728,-9198.325602443714,-22203.118952489265,0.0
2492.3395716352766,-7724.605665084761,-9074.663125740586,-10346.419278198891,-15557.094455791022,-15804.526589695191,-9198.25414877844,-22203.952578584143,0.0
2492.4229342447647,-7722.319147795952,-9075.032303011178,-10346.062009872514,-15557.939990830113,-15804.312228699366,-9196.729803919234,-22206.57254631091,0.0
2478.572832125568,-7729.416878546633,-9083.77346806319,-10354.993718031927,-15564.347002816465,-15810.957419569966,-9204.04189566574,-22217.695500205427,0.0
2475.012057806015,-7731.5604885048915,-9083.999738003227,-10355.56534735413,-15559.011795809243,-15808.611357560096,-9202.708093913934,-22212.443655807696,0.0
2487.1949077354548,-7736.621789795226,-9085.047725093931,-10354.422088709725,-15559.05943158609,-15811.52904889217,-9203.517902120386,-22209.752234415657,0.0
2490.9700430508333,-7735.133171768656,-9086.476798399439,-10359.72156888431,-15568.062593410781,-15819.055501634502,-9205.947326739748,-22205.203017726464,0.0
2496.436248444394,-7728.726159782304,-9079.283796095056,-10348.812975985615,-15556.844367962558,-15807.908729851553,-9206.876224388327,-22192.8058068012,0.0
2478.0012028033652,-7733.739825295788,-9086.417253678375,-10351.718758373476,-15557.46363306161,-15805.538849953258,-9201.672015767443,-22196.86675677768,0.0
2476.5959473862845,-7740.325471445329,-9095.444233391489,-10359.757295716949,-15564.263640206978,-15812.529400206024,-9207.090585384152,-22210.14522957467,0.0
2492.708748905866,-7735.252261210782,-9090.347205268516,-10355.946433568932,-15562.060485527656,-15816.375989186678,-9208.876927016034,-22213.90845594584,0.0
2478.2393816876165,-7728.261710958015,-9080.522326293161,-10348.777249152976,-15557.773265611137,-15811.290870007919,-9202.82718335606,-22211.872026485493,0.0
2466.7353415782923,-7730.8816786847765,-9083.320928183111,-10351.802120982964,-15558.190078658576,-15807.718186744154,-9202.005466205394,-22210.80022150636,0.0
2476.7388547168352,-7736.03825152881,-9087.75105543018,-10358.066225638766,-15564.180277597488,-15811.278961063706,-9205.459060027033,-22207.870621230075,0.0
2479.2516419456833,-7736.478882464675,-9084.583276269643,-10353.42173739587,-15561.476947261239,-15811.290870007919,-9207.185856937853,-22216.707057835785,0.0
2485.44429293621,-7729.512150100332,-9078.03335695274,-10343.584949476304,-15551.914065058561,-15798.929385915293,-9196.217719318094,-22210.109502742034,0.0
2492.7682936269284,-7726.6540034893205,-9076.104107990306,-10342.191603003435,-15544.054161878277,-15795.785424643178,-9196.610714477109,-22202.737866274467,0.0
2489.8148754622157,-7724.867661857437,-9074.865577792201,-10344.216123519569,-15544.637700144694,-15806.372476048135,-9204.923157537467,-22202.6783215534,0.0
2494.757087310424,-7711.255738622493,-9061.718103381545,-10334.248337213665,-15541.529465705218,-15794.10626350921,-9185.475851638374,-22193.88952072454,0.0
2484.515395287631,-7719.889723176591,-9071.304803472649,-10346.455005031528,-15556.594280134095,-15803.9668693172,-9198.194604057377,-22206.215277984527,0.0
2480.6449884185517,-7727.5590832494745,-9080.951048284815,-10358.352040299867,-15569.193943110973,-15818.507690200726,-9216.117565097265,-22212.45556475191,0.0
2487.504540284981,-7730.071870478323,-9082.344394757682,-10358.721217570455,-15569.551211437349,-15816.780893289906,-9209.186559565562,-22207.15608457732,0.0
2483.931857021216,-7730.8816786847765,-9081.879945933393,-10356.315610839521,-15565.68080456827,-15813.422571021967,-9203.101089072949,-22197.617020263067,0.0
2481.823973895594,-7731.238947011152,-9081.439314997528,-10354.255363490749,-15561.76276192234,-15810.719240685716,-9203.315450068774,-22199.30809034125,0.0
2479.930451765799,-7743.338434331104,-9089.585032838913,-10360.852918584502,-15570.099022871127,-15817.400158388957,-9211.33016952382,-22221.041913529156,0.0
2476.631674218922,-7736.836150791051,-9082.89220619146,-10351.349581102888,-15559.92878451361,-15809.826069869776,-9203.756081004638,-22215.88534068512,0.0
2483.288774033738,-7731.64385111438,-9079.879243305684,-10350.230140346908,-15556.820550074133,-15807.46809891569,-9202.791456523422,-22208.144526946966,0.0
2486.4565531942767,-7734.0494578453145,-9082.93984196831,-10353.921913052798,-15558.118624993302,-15805.348306845855,-9197.908789396275,-22208.966244097628,0.0
2481.7406112861063,-7733.025288643035,-9086.214801626762,-10356.482336058498,-15561.369766763326,-15809.123442161235,-9199.88567413556,-22210.502497901045,0.0
2479.09682567092,-7730.953132350051,-9086.583978897352,-10357.232599543888,-15567.50287303279,-15810.92169273733,-9202.41037030862,-22208.91860832078,0.0
2471.594190817013,-7733.799370016851,-9086.452980511012,-10359.423845278996,-15572.194997052535,-15813.410662077753,-9205.304243752269,-22209.990413299907,0.0
2470.0460280693815,-7730.500592469974,-9080.3675100184,-10353.064469069493,-15566.288160723112,-15808.992443774896,-9194.669556570463,-22211.1217630001,0.0
2477.108031987424,-7732.608475595596,-9080.474690516312,-10352.171298253552,-15563.76346455005,-15810.338154470915,-9199.433134255481,-22214.122816941664,0.0
2480.240084315325,-7734.7282676654295,-9085.17872348027,-10353.56464472642,-15562.810749013046,-15812.898577476613,-9203.99425988889,-22215.909158573544,0.0
2477.512936090651,-7737.145783340578,-9087.084154554277,-10353.016833292644,-15561.76276192234,-15815.8281777529,-9209.150832732923,-22220.017744326877,0.0
2477.8702044170273,-7736.895695512114,-9089.275400289387,-10359.95974776856,-15569.336850441525,-15818.329056037539,-9213.71195836633,-22216.99287249689,0.0
2483.1577756474,-7734.82353921913,-9089.072948237774,-10362.925074877487,-15572.171179164112,-15815.851995641326,-9210.663268647917,-22211.872026485493,0.0
2485.730107597311,-7732.144026771306,-9086.238619515187,-10358.45922079778,-15566.597793272636,-15807.384736306201,-9201.695833655867,-22208.358887942788,0.0
2494.7809051988497,-7724.2364878141725,-9077.175912969436,-10346.574094473654,-15558.82125270184,-15802.859337505432,-9195.634181051679,-22204.607570515833,0.0
2491.2082219350846,-7728.595161395967,-9081.355952388041,-10351.992664090365,-15564.168368653276,-15808.551812839032,-9197.349069018286,-22210.764494673724,0.0
2478.942009396157,-7726.868364485146,-9078.307262669628,-10350.027688295293,-15562.655932738282,-15807.182284254588,-9197.241888520373,-22212.22929481187,0.0
2476.0957717293572,-7730.774498186864,-9083.487653402088,-10353.648007335909,-15567.145604706415,-15807.70627779994,-9198.944867542767,-22212.312657421357,0.0
2482.8600520420864,-7732.001119440755,-9083.178020852562,-10349.456058973092,-15560.8695911064,-15800.989633264064,-9195.36027533479,-22209.549782364043,0.0
2488.028533830333,-7729.905145259347,-9082.368212646108,-10348.300891384475,-15559.404790968258,-15802.14480085268,-9195.229276948452,-22206.036643821342,0.0
2482.8719609862987,-7732.85856342406,-9090.120935328478,-10362.115266671033,-15570.777832691241,-15816.340262354039,-9214.03349986007,-22205.65555760654,0.0
2478.858646786669,-7733.989913124252,-9091.29992080552,-10363.818245693428,-15572.766626374738,-15819.472314681941,-9215.093395894988,-22206.274822705593,0.0
2485.3371124382966,-7729.011974443405,-9082.034762208157,-10351.528215266075,-15561.179223655927,-15805.88420933542,-9201.255202720002,-22201.713697072188,0.0
2492.0061211973252,-7728.154530460102,-9078.235809004353,-10345.01402278181,-15556.915821627832,-15803.395239994998,-9195.741361549592,-22199.59390500235,0.0
2498.2821347973395,-7729.940872091985,-9080.403236851036,-10348.598614989787,-15561.989031862378,-15809.15916899387,-9201.934012540118,-22202.404415836514,0.0
2481.5977039555555,-7730.738771354226,-9080.677142567925,-10348.705795487702,-15563.513376721585,-15804.264592922515,-9205.649603134434,-22205.810373881304,0.0
2479.013463061432,-7730.036143645685,-9081.022501950089,-10345.978647263026,-15557.713720890075,-15800.810999100873,-9203.089180128736,-22209.049606707118,0.0
2482.883869930511,-7729.095337052893,-9083.487653402088,-10353.457464228508,-15561.04822526959,-15811.957770883824,-9203.827534669914,-22215.611434968232,0.0
2496.1623427275053,-7727.999714185338,-9081.153500336426,-10348.884429650889,-15555.867834537128,-15807.182284254588,-9205.173245365932,-22212.57465419403,0.0
2504.7844183373923,-7710.255387308638,-9065.25505981267,-10332.676356577607,-15544.67342697733,-15791.31957056347,-9181.391083773467,-22195.67586235642,0.0
2484.5749400086934,-7721.271160705248,-9077.473636574749,-10345.788104155625,-15555.498657266538,-15803.53814732555,-9191.168326971972,-22205.5245592202,0.0
2482.967232539999,-7735.704801090859,-9089.847029611588,-10357.375506874438,-15567.657689307554,-15815.39945576125,-9210.544179205792,-22216.040156959887,0.0
2491.505945540398,-7732.251207269219,-9088.286957919745,-10350.694589171197,-15558.940342143966,-15801.07299587355,-9201.29092955264,-22208.79951887865,0.0
2500.318564257686,-7730.7149534658,-9090.31147843588,-10346.752728636842,-15553.605135136744,-15799.66774045647,-9196.586896588684,-22208.716156269165,0.0
2488.7787973157238,-7732.263116213432,-9091.371374470795,-10358.423493965141,-15567.479055144366,-15814.470558112671,-9203.029635407673,-22214.81353570599,0.0
2479.4302761088716,-7731.3699453974905,-9080.653324679499,-10355.017535920353,-15568.729494286685,-15817.554974663723,-9203.446448455112,-22214.611083654378,0.0
2475.619413960855,-7726.892182373571,-9071.614436022173,-10349.217880088841,-15560.8695911064,-15805.979480889122,-9194.824372845225,-22209.89514174621,0.0
2470.796291554772,-7730.9174055174135,-9077.140186136798,-10356.208430341609,-15564.906723194455,-15807.110830589316,-9195.145914338964,-22210.812130450573,0.0
2477.060396210574,-7734.525815613817,-9087.00079194479,-10364.473237625118,-15573.00480525899,-15814.018018232591,-9203.494084231963,-22213.503551842612,0.0
2480.764077860677,-7735.466622206608,-9085.797988579323,-10359.602479442185,-15569.491666716287,-15811.61241150166,-9199.98094568926,-22208.32316111015,0.0
2486.420826361639,-7737.800775272268,-9084.130736389565,-10353.886186220161,-15563.8111003269,-15806.622563876597,-9193.133302767043,-22208.32316111015,0.0
2482.13360644512,-7731.512852728041,-9077.24736663471,-10347.538718954871,-15556.999184237322,-15801.25163003674,-9194.24083457881,-22212.967649353046,0.0
2477.1794856526994,-7729.512150100332,-9077.878540677975,-10351.956937257726,-15558.99988686503,-15805.002947463692,-9197.468158460411,-22212.765197301433,0.0
2480.1209948731994,-7730.202868864661,-9078.235809004353,-10352.635747077842,-15562.322482300331,-15808.932899053832,-9199.206864315443,-22211.919662262342,0.0
2489.076520921038,-7730.298140418361,-9076.30656004192,-10350.003870406868,-15561.500765149665,-15807.70627779994,-9200.207215629298,-22210.502497901045,0.0
2496.4243395001818,-7720.854347657808,-9066.291137959164,-10339.476363722973,-15551.449616234273,-15796.440416574867,-9191.692320517324,-22200.98725147522,0.0
2491.5535813172482,-7727.308995421011,-9072.769603610792,-10346.252552979915,-15559.178521028218,-15801.454082088352,-9197.313342185647,-22203.84539808623,0.0
2473.3328966720455,-7733.5611911326005,-9080.165057966786,-10352.195116141978,-15564.728089031267,-15810.099975586665,-9205.86396413026,-22215.56379919138,0.0
2472.6421779077173,-7726.642094545107,-9072.57906050339,-10342.155876170798,-15556.082195532956,-15806.134297163882,-9196.253446150731,-22212.134023258168,0.0
2482.7052357673233,-7726.070465222905,-9070.363996879856,-10337.130301713101,-15549.234552610737,-15798.86984119423,-9192.871305994368,-22209.013879874477,0.0
2489.3385176937136,-7728.297437790652,-9072.876784108705,-10338.487921353333,-15544.875879028945,-15793.308364246968,-9185.606850024711,-22207.668169178458,0.0
2485.3490213825094,-7737.52686955538,-9091.430919191858,-10365.676040990586,-15570.253839145891,-15814.018018232591,-9200.445394513548,-22215.825795964058,0.0
2492.58965946374,-7737.943682602819,-9095.980135881053,-10370.558708117731,-15576.351218582717,-15817.09052583943,-9205.101791700657,-22215.944885406185,0.0
2484.682120506606,-7737.169601229003,-9091.776278574023,-10368.12928349837,-15577.482568282909,-15815.36372892861,-9200.695482342011,-22210.502497901045,0.0
2480.2758111479625,-7740.885191823319,-9088.82286040931,-10365.747494655861,-15575.33895832465,-15815.066005323297,-9202.088828814882,-22205.905645435003,0.0
2475.381235076604,-7738.682037143996,-9086.369617901526,-10362.615442327959,-15571.956818168284,-15816.161628190852,-9208.305297693832,-22194.663602098353,0.0
2480.8593494143774,-7737.991318379669,-9086.059985351998,-10358.661672849392,-15569.45593988365,-15812.505582317597,-9204.422981880542,-22213.944182778476,0.0
2480.240084315325,-7737.848411049119,-9085.92898696566,-10357.10160115755,-15567.979230801293,-15808.242180289506,-9201.231384831577,-22216.695148891573,0.0
2484.3010342918046,-7733.894641570551,-9080.438963683675,-10351.50439737765,-15562.143848137142,-15806.074752442823,-9200.552575011463,-22212.050660648678,0.0
2492.4586610774018,-7723.176591779255,-9069.35173662179,-10340.976890693755,-15552.461876492338,-15800.41800394186,-9196.813166528722,-22205.572194997054,0.0
2472.368272190829,-7735.1093538802315,-9084.666638879131,-10357.184963767037,-15565.63316879142,-15811.89822616276,-9212.187613507123,-22220.887097254395,0.0
2472.630268963505,-7735.8238905329845,-9088.63231730191,-10363.472886311265,-15572.897624761077,-15814.101380842081,-9213.604777868417,-22217.731227038068,0.0
2480.1686306500496,-7730.76258924265,-9082.118124817644,-10357.589867870263,-15567.312329925391,-15805.777028837509,-9207.483580543167,-22210.192865351524,0.0
2477.3462108716753,-7738.527220869234,-9086.5363431205,-10358.828398068368,-15565.180628911343,-15802.93079117071,-9193.919293085071,-22214.337177937487,0.0
2472.4516348003167,-7735.3713506529075,-9084.642820990704,-10356.220339285821,-15562.763113236195,-15807.46809891569,-9200.21912457351,-22209.81177913672,0.0
2479.0849167267074,-7731.691486891229,-9084.10691850114,-10356.422791337434,-15564.668544310203,-15807.908729851553,-9199.909492023984,-22206.894087804645,0.0
2486.885275185928,-7732.286934101857,-9083.440017625238,-10354.779357036101,-15559.083249474517,-15803.180878999172,-9195.038733841051,-22212.491291584545,0.0
2502.343084773819,-7721.437885924223,-9070.316361103007,-10344.192305631144,-15549.460822550776,-15794.177717174483,-9187.262193270255,-22205.47692344335,0.0
2506.2849453081735,-7728.642797172816,-9079.259978206632,-10354.981809087714,-15560.417051226323,-15800.048826671271,-9193.180938543892,-22210.907402004275,0.0
2510.6436188899675,-7729.964689980409,-9081.987126431306,-10354.91035542244,-15560.643321166363,-15800.036917727057,-9190.27515615603,-22212.70565258037,0.0
2473.6544381657845,-7732.5012950976825,-9085.976622742512,-10357.220690599675,-15564.287458095401,-15804.407500253064,-9196.348717704432,-22219.80338333105,0.0
2489.7910575737906,-7729.071519164468,-9084.095009556926,-10355.470075800431,-15562.846475845685,-15801.835168303152,-9200.028581466111,-22215.635252856657,0.0
2480.6330794743394,-7729.774146873008,-9085.83371541196,-10356.649061277472,-15567.979230801293,-15801.513626809414,-9199.206864315443,-22213.801275447924,0.0
2483.7770407464527,-7734.763994498067,-9085.142996647632,-10354.743630203464,-15561.548400926516,-15795.928331973728,-9195.396002167428,-22210.38340845892,0.0
2507.7735633347424,-7724.820026080588,-9069.756640725016,-10337.737657867941,-15542.922812178085,-15789.092597995723,-9186.845380222816,-22197.40265926724,0.0
2496.4838842212444,-7715.435778041097,-9064.981154095783,-10335.093872252755,-15544.363794427805,-15792.510464984727,-9182.236618812558,-22190.281110628137,0.0
2497.1150582645096,-7722.6168714012665,-9072.066975902251,-10344.680572343857,-15555.724927206578,-15804.371773420426,-9194.8005549568,-22201.142067749985,0.0
2477.4533913695877,-7733.585009021024,-9084.595185213853,-10356.244157174244,-15565.573624070357,-15812.827123811338,-9204.04189566574,-22219.184118231995,0.0
2471.808551812839,-7738.5034029808085,-9094.443882077634,-10363.842063581853,-15568.824765840385,-15812.469855484964,-9203.446448455112,-22223.328430817965,0.0
2477.0246693779363,-7738.074680989157,-9097.385391298134,-10364.937686449408,-15568.824765840385,-15814.351468670544,-9201.231384831577,-22219.815292275263,0.0
2474.2141585437744,-7732.85856342406,-9091.883459071934,-10359.30475583687,-15563.656284052136,-15809.897523535052,-9199.171137482805,-22218.945939347745,0.0
2481.1808909081165,-7728.035441017976,-9081.534586551228,-10353.350283730595,-15559.70251457357,-15807.753913576791,-9200.719300230438,-22213.384462400485,0.0
2485.5514734341227,-7733.156287029373,-9085.333539755033,-10359.197575338958,-15564.168368653276,-15811.112235844732,-9201.934012540118,-22210.657314175813,0.0
2487.528358173406,-7730.10759731096,-9084.690456767556,-10358.649763905181,-15561.881851364466,-15805.574576785895,-9196.825075472934,-22206.08427959819,0.0
2493.8877343829085,-7727.07081653676,-9083.523380234725,-10356.387064504795,-15560.155054453648,-15799.310472130092,-9192.537855556415,-22199.86781071924,0.0
2483.8842212443656,-7737.657867941717,-9093.562620205905,-10359.435754223208,-15565.383080962958,-15807.27755580829,-9201.374292162127,-22210.109502742034,0.0
2478.858646786669,-7734.216183064291,-9090.680655706468,-10355.636801019406,-15564.823360584967,-15815.197003709636,-9209.567645780364,-22212.908104631984,0.0
2486.254101142663,-7727.880624743213,-9079.700609142497,-10349.646602080493,-15558.559255929165,-15812.9819400861,-9205.328061640696,-22211.82439070864,0.0
2494.5784531472364,-7722.390601461228,-9071.340530305284,-10342.644142883511,-15550.723170637308,-15807.884911963129,-9205.220881142783,-22209.71650758302,0.0
2491.5416723730355,-7732.167844659732,-9079.652973365646,-10346.919453855819,-15553.045414758755,-15808.730447002219,-9211.23489797012,-22213.36064451206,0.0
2479.787544435248,-7737.098147563727,-9086.179074794123,-10355.208079027754,-15561.810397699192,-15815.625725701288,-9214.652764959123,-22218.338583192908,0.0
2483.7889496906655,-7735.264170154995,-9085.357357643457,-10359.11421272947,-15566.847881101101,-15818.817322750252,-9213.926319362157,-22216.552241561025,0.0
2483.050595149487,-7738.455767203958,-9087.620057043843,-10361.841360954146,-15566.835972156887,-15815.518545203377,-9208.912653848673,-22219.410388172033,0.0
2478.036929636003,-7734.835448163343,-9085.809897523535,-10359.042759064194,-15564.406547537526,-15810.82642118363,-9208.126663530644,-22218.076586420233,0.0
2478.5847410697806,-7729.297789104507,-9080.248420576274,-10354.517360263426,-15562.763113236195,-15809.766525148712,-9207.650305762143,-22211.800572820215,0.0
2481.7406112861063,-7727.225632811523,-9083.678196509489,-10358.649763905181,-15567.35996570224,-15810.540606522529,-9204.327710326841,-22209.81177913672,0.0
2481.7525202303186,-7725.891831059717,-9083.535289178937,-10355.112807474052,-15563.227562060485,-15806.908378537699,-9200.088126187173,-22205.28638033595,0.0
2482.9791414842116,-7727.225632811523,-9083.154202964137,-10354.898446478228,-15563.489558833162,-15805.681757283806,-9200.528757123036,-22206.060461709767,0.0
2487.6117207828943,-7732.560839818745,-9084.368915273815,-10356.244157174244,-15562.251028635055,-15800.894361710363,-9192.64503605433,-22213.12246562781,0.0
2493.9234612155456,-7730.321958306787,-9080.855776731114,-10351.004221720725,-15555.296205214927,-15801.54935364205,-9196.52735186762,-22211.002673557974,0.0
2497.758141251987,-7731.036494959539,-9084.34509738539,-10354.422088709725,-15555.96310609083,-15808.432723396905,-9205.994962516597,-22211.288488219074,0.0
2477.9654759707278,-7734.811630274918,-9089.727940169463,-10359.102303785257,-15559.500062521956,-15811.505231003744,-9207.114403272577,-22215.49234552611,0.0
2481.347616127092,-7730.679226633162,-9088.417956306082,-10353.648007335909,-15556.689551687794,-15806.098570331245,-9204.303892438415,-22206.65590892039,0.0
2489.4218803032018,-7730.071870478323,-9087.584330211204,-10354.719812315037,-15559.84542190412,-15805.860391446995,-9197.956425173126,-22208.537522105977,0.0
2487.6117207828943,-7726.594458768258,-9083.535289178937,-10354.934173310865,-15562.953656343596,-15806.074752442823,-9192.18058723004,-22200.963433586796,0.0
2481.2642535176046,-7731.072221792177,-9083.4995623463,-10356.30370189531,-15568.11022918763,-15813.875110902043,-9198.397056108992,-22213.979909611113,0.0
2498.1987721878513,-7730.119506255173,-9080.129331134149,-10351.182855883912,-15561.727035089703,-15807.182284254588,-9201.028932779964,-22212.407928975055,0.0
2502.700353100196,-7730.4291388046995,-9081.713220714417,-10351.099493274423,-15563.9063718806,-15800.858634877724,-9198.337511387928,-22208.97815304184,0.0
2479.894724933161,-7732.203571492369,-9087.727237541756,-10357.577958926051,-15566.788336380037,-15806.47965654605,-9202.529459750745,-22213.241555069937,0.0
2480.799804693315,-7731.572397449104,-9086.143347961486,-10354.636449705551,-15560.095509732584,-15808.480359173756,-9202.350825587557,-22215.83770490827,0.0
2489.886329127491,-7733.5611911326005,-9086.476798399439,-10355.255714804603,-15561.774670866555,-15805.217308459518,-9198.790051268004,-22214.38481371434,0.0
2487.171089847029,-7732.382205655557,-9082.344394757682,-10351.385307935525,-15557.654176169011,-15801.156358483038,-9193.562024758694,-22210.88358411585,0.0
2476.786490493685,-7734.9188107728305,-9084.15455427799,-10352.397568193592,-15562.072394471868,-15807.98018351683,-9200.266760350361,-22210.847857283214,0.0
2495.3168076884144,-7730.4648656373365,-9082.773116749335,-10350.075324072144,-15562.262937579268,-15807.968274572617,-9202.255554033856,-22209.502146587194,0.0
2492.375298467914,-7731.608124281741,-9085.797988579323,-10349.479876861518,-15561.01249843695,-15807.46809891569,-9201.064659612603,-22209.311603479793,0.0
2491.398765042485,-7729.845600538284,-9080.855776731114,-10348.777249152976,-15556.558553301456,-15805.205399515306,-9201.743469432717,-22200.582347371994,0.0
2486.5875515806147,-7723.021775504492,-9070.75699203887,-10340.881619140055,-15550.746988525732,-15798.86984119423,-9198.170786168952,-22195.461501360594,0.0
2495.4358971305396,-7716.841033458179,-9066.314955847589,-10337.54711476054,-15548.055567133695,-15793.296455302756,-9191.29932535831,-22199.617722890776,0.0
2480.954620968078,-7729.643148486671,-9080.296056353123,-10349.372696363604,-15559.14279419558,-15806.229568717585,-9201.350474273702,-22213.872729113198,0.0
2485.0632067214083,-7735.776254756134,-9088.39413841766,-10355.196170083542,-15563.20374417206,-15810.338154470915,-9205.375697417545,-22219.029301957235,0.0
2504.581966285779,-7728.904793945493,-9080.712869400562,-10347.62208156436,-15556.165558142442,-15803.990687205625,-9199.016321208044,-22208.013528560623,0.0
2499.842206489184,-7725.1772944069635,-9073.472231319332,-10343.632585253154,-15554.379216510559,-15803.835870930861,-9198.516145551117,-22202.654503664977,0.0
2480.9903478007154,-7726.118100999756,-9076.211288488219,-10348.443798715025,-15558.737890092354,-15805.31258001322,-9204.434890824754,-22202.24959956175,0.0
2482.0502438356325,-7726.332461995581,-9077.66417968215,-10346.752728636842,-15557.725629834287,-15803.53814732555,-9204.256256661567,-22204.25030218946,0.0
2499.3658487206817,-7718.567830368998,-9069.196920347025,-10337.428025318415,-15549.56800304869,-15793.451271577518,-9193.847839419795,-22195.794951798547,0.0
2498.1154095783636,-7718.270106763684,-9071.185714030524,-10341.393703741194,-15552.866780595567,-15795.928331973728,-9196.217719318094,-22196.18794695756,0.0
2469.0933125323777,-7737.01478495424,-9092.109729011974,-10364.556600234606,-15575.779589260514,-15816.375989186678,-9205.220881142783,-22214.24190638379,0.0
2477.2866661506127,-7737.169601229003,-9090.204297937966,-10359.900203047499,-15571.039829463918,-15812.017315604884,-9200.12385301981,-22211.562393935965,0.0
2493.8758254386958,-7737.205328061641,-9086.893611446876,-10353.08828695792,-15563.084654729935,-15807.134648477737,-9201.636288934804,-22205.917554379215,0.0
