EEG 1,EEG 2,EEG 3,EEG 4,EEG 5,EEG 6,EEG 7,EEG 8,Trigger
-1407.2918465413447,10794.04076431604,15028.539784805378,13913.290977188417,-129.36686098093975,2768.9605278044073,4382.944010098784,-21450.92621813613,0.0
-1402.6473582984502,10798.840068833699,15032.219648567056,13917.804467044974,-124.4365580769437,2777.820782298545,4397.711100922347,-21461.215545935775,0.0
-1403.1832607880149,10797.208543476578,15030.397580102537,13917.852102821824,-123.76965720104084,2778.9164051661,4398.723361180415,-21470.492613477352,0.0
-1408.697101958426,10792.373512126282,15025.574457696452,13912.862255196764,-129.61694880940328,2773.724105489428,4399.509351498443,-21462.632710297068,0.0
-1411.293251796762,10789.670181790034,15022.287589093788,13910.230378525792,-132.5703669741159,2767.5076366104763,4391.69708409501,-21452.724468712226,0.0
-1406.541583055954,10793.6239512686,15026.801078950346,13913.136160913653,-128.8666853240126,2768.5794415896057,4392.066261365599,-21425.703074293946,0.0
-1400.3608410096401,10798.518527339958,15030.98111836895,13917.042294615372,-123.7339303684032,2773.4621087167516,4393.6858777785055,-21398.562590433547,0.0
-1397.478876510203,10800.019054310738,15032.24346645548,13917.340018220684,-123.60293198206512,2775.5699918423734,4396.341572337904,-21383.65259227943,0.0
-1399.8487564085005,10798.613798893659,15029.980767055096,13913.934060175894,-129.24777153881422,2771.2113182605794,4389.851197742064,-21393.489380199,0.0
-1400.3965678422778,10796.446371046974,15027.134529388297,13911.087822509095,-131.7248319350248,2770.3300563888506,4394.590957538659,-21413.127229205496,0.0
-1396.6095235826867,10798.29225739992,15028.920871020178,13915.35122453719,-124.73428168225745,2778.154232736497,4405.404278883656,-21425.226716525445,0.0
-1397.4669675659904,10794.862481466706,15024.895647876338,13912.921799917827,-127.19943313425547,2776.439344769889,4400.509702812297,-21439.565085357357,0.0
-1400.7419272244417,10792.992777225334,15020.525065350332,13908.432127949696,-132.92763530049243,2766.614465794535,4386.076062426685,-21451.48593851412,0.0
-1401.7660964267213,10790.289446889086,15015.701942944248,13905.288166677583,-133.3920841247819,2768.7461668085816,4389.136661089311,-21456.487695083393,0.0
-1401.0991955508184,10793.778767543363,15021.180057282021,13908.253493786508,-129.92658135892964,2775.5699918423734,4402.248408667329,-21438.302737270827,0.0
-1399.7296669663751,10792.96895933691,15022.33522487064,13908.622671057097,-131.02220422648432,2774.593458416944,4400.271523928046,-21412.93668609809,0.0
-1398.4196831029944,10791.38506975664,15019.846255530216,13906.5386058199,-132.02255554033857,2773.724105489428,4399.854710880607,-21391.48867757129,0.0
-1397.9195074460672,10794.69575624773,15021.918411823199,13905.704979725022,-134.64252326709976,2770.961230432116,4401.057514246075,-21368.65923151583,0.0
-1397.9433253344923,10795.219749793081,15023.704753455082,13903.96627386999,-139.42991884054518,2768.758075752794,4402.367498109455,-21370.898113027786,0.0
-1396.2760731447354,10792.21869585152,15023.59757295717,13905.919340720848,-135.72623719044188,2771.520950810106,4399.556987275293,-21393.45365336636,0.0
-1395.4662649382817,10794.600484694029,15026.812987894558,13910.813916792205,-126.67543958890323,2782.274727434039,4405.106555278341,-21410.12617526393,0.0
-1393.5846517526988,10798.661434670508,15029.837859724546,13912.111991711374,-124.94864267808339,2784.0729780101346,4406.392721253297,-21427.72759481008,0.0
-1393.7513769716745,10798.971067220036,15029.123323071793,13909.349116654063,-129.52167725570288,2779.440398711452,4401.974502950441,-21443.48312800329,0.0
-1394.930362448717,10796.3749173817,15027.694249766288,13908.563126336034,-129.66458458625348,2778.9997677755878,4403.748935638111,-21435.718496376703,0.0
-1396.0259853162718,10794.66002941509,15024.240655944646,13902.501473731847,-139.06074156995612,2771.008866208966,4397.699191978136,-21418.557707766417,0.0
-1394.43018679179,10798.732888335784,15026.622444787157,13907.253142472653,-131.8201034887252,2782.572451039353,4414.955252142121,-21405.529322797884,0.0
-1393.0606582073465,10799.197337160074,15026.717716340856,13908.848940997135,-129.85512769365434,2780.4288410810937,4405.642457767906,-21377.85293644792,0.0
-1397.0858813511888,10798.208894790432,15027.718067654712,13908.813214164498,-134.14234761017264,2771.5328597543185,4406.142633424834,-21360.91841777767,0.0
-1399.4081254726361,10800.030963254952,15031.457476137452,13914.624778940222,-128.9857747661381,2778.0470522385835,4414.038263437755,-21367.051524047132,0.0
-1400.289387344365,10799.602241263301,15029.409137732893,13913.791152845344,-124.2102881369052,2782.9654461983673,4407.928975056716,-21385.79620223769,0.0
-1399.3723986399984,10799.959509589677,15029.480591398169,13913.326704021056,-123.36475309781412,2783.977706456434,4402.534223328431,-21406.19622367379,0.0
-1398.7293156525209,10799.55460548645,15028.480240084316,13910.587646852167,-128.24742022495994,2779.7738491494038,4404.344382848738,-21428.858944510273,0.0
-1399.169946588385,10795.553200231032,15022.57340375489,13902.299021680232,-137.67930404130024,2771.937763857545,4398.258912356125,-21444.93601919722,0.0
-1396.0259853162718,10794.779118857217,15016.368843820152,13897.904621265801,-141.83552557148045,2771.616222363806,4398.008824527662,-21435.0515955008,0.0
-1394.299188405452,10796.42255315855,15016.380752764364,13899.417057180795,-138.7034732435796,2775.9748959456,4407.476435176639,-21413.579769085572,0.0
-1395.1566323887555,10794.55284891718,15019.322261984862,13903.978182814202,-133.0824515752556,2777.118154590005,4410.132129736038,-21404.23124787872,0.0
-1393.7513769716745,10794.27894320029,15023.204577798155,13906.955418867341,-130.80784323065836,2775.176996683359,4409.512864636985,-21391.250498687037,0.0
-1392.1793963356179,10796.184374274299,15025.00282837425,13907.89622546013,-129.18822681775148,2775.6890812844986,4406.356994420659,-21370.6242073109,0.0
-1391.4767686270773,10796.029557999536,15027.313163551486,13913.02898041574,-122.68594327769871,2776.594161044652,4402.057865559928,-21373.208448205023,0.0
-1393.1202029284093,10793.838312264426,15027.348890384123,13913.731608124283,-122.73357905454891,2773.2834745535633,4389.029480591398,-21389.440339166733,0.0
-1394.8946356160793,10794.612393638243,15026.610535842943,13911.44509083547,-124.5794654074943,2774.117100648442,4394.26941604492,-21413.817947969823,0.0
-1395.859260097296,10796.744094652287,15026.979713113533,13910.385194800556,-125.80608666138703,2772.8547525619115,4394.972043753461,-21434.06315313116,0.0
-1396.8834292995755,10798.030260627243,15028.301605921126,13911.480817668109,-125.92517610351254,2769.1987066886586,4392.411620747763,-21446.246003060598,0.0
-1397.2168797375268,10794.195580590802,15026.705807396645,13912.219172209287,-123.924473475804,2773.759832322065,4395.150677916649,-21439.398360138384,0.0
-1395.1566323887555,10797.018000369177,15028.599329526442,13912.397806372475,-124.0911986947797,2776.522707379377,4398.211276579275,-21429.144759171377,0.0
-1396.4785251963488,10796.660732042801,15026.217540683929,13909.694476036226,-127.86633401015831,2773.0929314461623,4396.960837436956,-21411.757700621052,0.0
-1397.5741480639033,10799.983327478103,15026.229449628143,13907.872407571705,-131.58192460447418,2767.9720854347656,4385.623522546608,-21387.499181260086,0.0
-1396.9667919090632,10796.744094652287,15024.90755682055,13905.847887055572,-133.72553456273334,2764.5780363341887,4385.135255833894,-21373.220357149235,0.0
-1394.585003066553,10802.567568372226,15030.588123209936,13912.540713703027,-122.68594327769871,2779.3570361019642,4406.988168463925,-21374.494614179977,0.0
-1393.346472868448,10803.98473273352,15031.219297253201,13911.075913564882,-123.86492875474126,2781.143377733847,4405.166099999404,-21391.512495459712,0.0
-1393.7513769716745,10804.020459566156,15030.37376221411,13909.218118267725,-126.93743636157936,2780.5717484116444,4403.284486813822,-21414.865935060527,0.0
-1395.0256340024175,10802.162664268999,15027.837157096837,13906.145610660886,-130.3433944063689,2778.416229509173,4404.094295020274,-21434.9563239471,0.0
-1398.6935888198832,10798.649525726296,15024.836103155274,13905.03807884912,-130.62920906747013,2779.5833060420027,4408.488695434706,-21447.115355988113,0.0
-1399.7892116874377,10799.959509589677,15026.062724409168,13906.574332652539,-130.22430496424337,2778.6424994492113,4404.737378007752,-21440.124805735348,0.0
-1400.206024734877,10799.578423374876,15024.466925884684,13904.895171518569,-132.72518324887906,2774.117100648442,4396.734567496918,-21422.07084630912,0.0
-1399.0984929231097,10801.781578054199,15027.670431877861,13909.801656534139,-125.96090293615019,2781.4411013391605,4403.344031534884,-21397.062063462763,0.0
-1398.884131927284,10801.733942277348,15028.956597852817,13909.206209323513,-126.63971275626558,2780.845654128533,4404.1776576297625,-21379.829821187202,0.0
-1396.0736210931218,10802.710475702776,15030.016493887735,13910.956824122757,-124.61519224013195,2782.4533615972277,4408.988871091633,-21369.707218606534,0.0
-1390.797958806962,10803.270196080766,15030.338035381474,13911.992902269249,-123.50766042836472,2786.073680637843,4414.443167540981,-21368.873592511656,0.0
-1390.6193246437738,10803.722735960842,15030.623850042575,13912.409715316688,-122.19767656498412,2785.5496870924903,4411.656474595245,-21387.070459268434,0.0
-1393.5370159758488,10802.853383033327,15029.504409286596,13913.005162527315,-122.41203756081003,2778.547227895511,4405.65436671212,-21412.722325102266,0.0
-1395.08517872348,10799.364062379049,15025.324369867989,13908.193949065446,-128.4260543881482,2773.4859266051767,4397.961188750812,-21430.43092514633,0.0
-1393.9419200790753,10798.363711065194,15025.324369867989,13907.765227073793,-129.17631787353892,2772.318850072347,4398.639998570927,-21438.49328037823,0.0
-1395.728261710958,10803.353558690254,15031.469385081666,13912.897982029403,-125.65127038662388,2775.474720288673,4401.474327293513,-21441.053703383925,0.0
-1393.2392923705347,10801.864940663685,15027.646613989436,13907.288869305292,-127.28279574374332,2780.6789289095573,4403.9513876897245,-21424.881357143284,0.0
-1393.7751948600996,10798.375620009407,15021.573052441036,13900.738949988388,-131.10556683597216,2780.845654128533,4406.380812309084,-21405.243508136788,0.0
-1391.3219523523142,10802.436569985886,15025.70545608279,13903.859093372077,-129.50976831149035,2782.8344478120293,4404.284838127675,-21383.70022805628,0.0
-1389.7976074931075,10805.2947165969,15026.801078950346,13904.263997475304,-131.17702050124745,2776.367891104614,4399.866619824819,-21374.435069458916,0.0
-1388.7496204024033,10800.25723319499,15022.454314312765,13901.882208632793,-133.3444483479317,2774.7125478590697,4403.9513876897245,-21374.97097194848,0.0
-1390.5121441458607,10799.256881881136,15025.09809992795,13905.454891896557,-128.53323488606117,2782.119911159276,4410.251219178164,-21389.797607493107,0.0
-1396.788157745875,10799.221155048499,15026.753443173495,13907.360322970568,-126.55635014677773,2782.631995760416,4410.8228485003665,-21414.163307351988,0.0
-1398.0028700555551,10801.42430972782,15029.123323071793,13910.909188345908,-123.44811570730197,2782.9535372541545,4411.108663161467,-21430.28801781578,0.0
-1398.4196831029944,10801.924485384747,15029.873586557183,13912.18344537665,-122.30485706289709,2784.7517878302497,4411.144389994105,-21434.872961337613,0.0
-1397.1454260722514,10802.68665781435,15029.873586557183,13912.338261651412,-119.19662262342132,2788.0386564329137,4406.023543982708,-21429.525845386175,0.0
-1397.1096992396137,10803.282105024979,15026.586717954518,13906.657695262025,-123.53147831678982,2784.7041520534,4400.866971138674,-21415.38992860588,0.0
-1397.6336927849661,10803.067744029153,15023.871478674058,13902.120387517045,-129.64076669782838,2779.1307661619257,4400.759790640761,-21396.299891033163,0.0
-1393.3226549800227,10801.448127616246,15023.121215188668,13901.91793546543,-131.9153750424256,2777.689783912207,4403.117761594846,-21373.934893801987,0.0
-1393.5965606969114,10799.28069976956,15020.453611685056,13900.727041044176,-133.1539052405309,2778.1304148480713,4403.2368510369715,-21356.845558856978,0.0
-1394.1443721306887,10801.65057966786,15023.704753455082,13906.621968429388,-126.33008020673927,2781.7745517771123,4405.225644720467,-21357.72682072871,0.0
-1393.82283063695,10802.400843153251,15025.836454469129,13910.980642011182,-121.84040823860761,2779.5118523767273,4403.201124204334,-21371.74364806688,0.0
-1395.6806259341079,10800.185779529715,15025.645911361727,13909.110937769812,-122.23340339762177,2775.307995069697,4398.98535795309,-21399.67012224531,0.0
-1397.9671432229175,10799.721330705426,15023.907205506695,13904.62126580168,-124.73428168225745,2774.29573481163,4394.412323375471,-21424.92899292013,0.0
-1397.871871669217,10802.103119547935,15023.83575184142,13903.311281938299,-125.35354678131009,2780.1192085315674,4395.877123513615,-21433.55106853002,0.0
-1397.3597870680776,10805.282807652688,15026.741534229282,13903.942455981563,-127.47333885114415,2783.0964445847053,4401.986411894653,-21429.31148439035,0.0
-1396.788157745875,10801.579126002584,15024.419290107835,13901.131945147403,-134.22571021966047,2776.3798000488264,4400.8193353618235,-21414.020400021436,0.0
-1394.8708177276544,10797.291906086066,15022.871127360204,13904.287815363728,-131.97491976348837,2776.1416211645756,4399.366444167892,-21389.797607493107,0.0
-1394.323006293877,10799.673694928575,15024.9551925974,13908.289220619145,-127.18752419004292,2780.0239369778674,4401.402873628239,-21370.671843087748,0.0
-1391.643493846053,10803.71082701663,15028.432604307465,13911.80235916185,-122.90030427352463,2780.6312931327075,4408.27433443888,-21363.94328960766,0.0
-1392.3223036661684,10802.508023651164,15027.515615603097,13910.468557410042,-123.102756325138,2774.0456469831665,4398.1398229139995,-21370.219303207672,0.0
-1394.5492762339154,10805.175627154775,15029.956949166672,13911.456999779684,-122.05476923443352,2775.7724438939863,4391.411269433908,-21386.582192555717,0.0
-1396.2284373678851,10804.996992991586,15029.54013611923,13907.574683966393,-125.48454516764815,2777.082427757367,4393.70969566693,-21409.685544328066,0.0
-1397.1692439606768,10803.567919686078,15028.78987263384,13906.097974884036,-127.04461685949232,2777.6540570795696,4395.281676302988,-21421.999392643844,0.0
-1397.4312407333528,10803.901370124031,15027.8014302642,13904.192543810028,-131.7010140465997,2772.211669574434,4394.495685984959,-21432.75316926778,0.0
-1398.1815042187434,10804.127640064069,15026.812987894558,13904.299724307943,-131.34374572022315,2774.4981868632435,4394.043146104882,-21430.52619670003,0.0
-1399.2056734210228,10804.8183588284,15028.801781578053,13907.717591296943,-126.47298753728988,2780.2740248063305,4403.4988478096475,-21412.234058389553,0.0
-1398.1576863303185,10805.56862231379,15030.028402831946,13910.468557410042,-121.68559196384443,2781.1314687896343,4397.127562655933,-21391.655402790264,0.0
-1394.2277347401766,10804.282456338833,15029.051869406518,13911.266456672283,-119.72061616877356,2779.8572117588915,4392.066261365599,-21372.196187946956,0.0
-1392.4294841640813,10803.806098570332,15028.635056359077,13910.563828963743,-119.88734138774926,2776.9395204268167,4389.398657861987,-21356.952739354892,0.0
-1393.2750192031724,10802.222208990062,15027.46797982625,13906.90778309049,-124.32937757903073,2774.0218290947414,4388.8151195955725,-21364.09810588242,0.0
-1391.9293085071542,10805.342352373751,15029.028051518091,13907.372231914778,-122.84075955246188,2777.558785525869,4392.86416062784,-21383.438231283606,0.0
-1390.023877433146,10807.176329782482,15030.516669544662,13907.61041079903,-124.59137435170685,2778.1065969596466,4396.139120286291,-21405.4459601884,0.0
-1389.3212497246057,10806.568973627644,15030.504760600448,13908.229675898083,-124.8176442917453,2781.6911891676245,4401.259966297688,-21415.54474488064,0.0
-1390.4168725921602,10807.21205661512,15031.933833905956,13912.242990097711,-118.58926646858122,2788.8246467509425,4403.939478745512,-21422.047028420697,0.0
-1385.9986542893039,10808.379133147952,15032.350646953393,13913.969787008533,-114.79031326477751,2792.9570503926975,4397.782554587623,-21417.152452349335,0.0
-1384.7601240911988,10806.592791516068,15028.420695363253,13907.41986769163,-123.1503921019882,2787.621843385474,4406.821443244949,-21409.518819109093,0.0
-1393.1678387052596,10805.02081088001,15026.96780416932,13904.418813750068,-126.61589486784048,2781.3696476738855,4403.975205578149,-21390.952775081725,0.0
-1395.6925348783202,10803.93709695667,15025.78881869228,13904.144908033179,-127.91396978700851,2775.486629232885,4396.901292715894,-21364.4553742088,0.0
-1393.608469641124,10802.639022037501,15023.895296562483,13902.596745285546,-129.60503986519075,2775.951078057175,4395.638944629363,-21350.676725754878,0.0
-1391.7625832881786,10803.61555546293,15025.88409024598,13905.502527673409,-126.62780381205303,2778.3685937323226,4403.915660857087,-21356.714560470642,0.0
-1389.9286058794457,10802.460387874313,15026.95589522511,13906.169428549312,-123.91256453159146,2781.667371279199,4406.916714798649,-21369.528584443346,0.0
-1392.786752490458,10801.209948731996,15026.82489683877,13905.871704943998,-125.50836305607325,2777.1776993110675,4398.306548132975,-21395.38290232879,0.0
-1398.3601383819318,10798.006442738819,15022.168499651663,13901.953662298069,-128.50941699763607,2773.3311103304136,4390.148921347378,-21420.11777945826,0.0
-1396.6095235826867,10802.67474887014,15026.384265902905,13906.860147313639,-122.31676600710963,2782.0484574940006,4398.342274965613,-21430.37138042527,0.0
-1392.7391167136077,10803.210651359703,15026.741534229282,13909.265754044576,-120.12552027200027,2782.7153583699037,4399.676076717419,-21427.09642076682,0.0
-1392.5366646619943,10798.94724933161,15019.274626208013,13897.511626106787,-133.77317033958354,2768.1269017095287,4389.9464692957645,-21409.41163861118,0.0
-1392.941568765221,10797.911171185118,15018.04800495412,13895.117928320065,-136.16686812630627,2768.4246253148426,4385.980790872985,-21389.58324649728,0.0
-1391.8459458976665,10804.151457952496,15024.621742159448,13902.632472118185,-128.00924134070894,2776.7251594309905,4391.37554260127,-21369.92157960236,0.0
-1389.2259781709051,10804.068095343007,15025.169553593227,13904.764173132231,-125.56790777713603,2780.559839467432,4395.353129968262,-21354.082683799665,0.0
-1388.249444745476,10801.769669109985,15023.299849351855,13903.35891771515,-125.48454516764815,2782.143729047701,4397.365741540184,-21353.59441708695,0.0
-1389.7737896046826,10805.175627154775,15024.621742159448,13901.227216701103,-127.81869823330811,2782.596268927778,4400.688336975486,-21378.34120316063,0.0
-1389.2974318361805,10805.461441815876,15024.609833215236,13901.465395585354,-127.49715673956926,2781.4172834507353,4402.808129045319,-21406.62494566544,0.0
-1392.012671116642,10803.818007514545,15024.49074377311,13903.227919328812,-124.61519224013195,2782.0484574940006,4398.258912356125,-21420.3440493983,0.0
-1390.3811457595227,10803.222560303915,15025.074282039524,13904.061545423689,-122.43585544923513,2783.048808807855,4396.5559333337305,-21419.224608642322,0.0
-1392.1793963356179,10800.019054310738,15021.858867102137,13899.929141781935,-126.86598269630406,2781.0719240685717,4394.805318534485,-21419.21269969811,0.0
-1392.7152988251826,10796.505915768037,15019.417533538564,13897.785531823676,-130.17666918739317,2781.5840086697112,4396.806021162194,-21406.62494566544,0.0
-1390.4525994247979,10800.352504748691,15020.882333676707,13898.583431085915,-129.31922520408955,2785.5496870924903,4399.556987275293,-21386.30828683883,0.0
-1390.3930547037353,10801.924485384747,15022.037501265324,13899.238423017607,-128.99768371035066,2787.157394561185,4397.62773831286,-21372.410548942782,0.0
-1390.0834221542088,10801.960212217386,15023.145033077091,13901.644029748542,-128.00924134070894,2786.442857908432,4405.154191055192,-21356.47638158639,0.0
-1387.511090204298,10801.698215444709,15022.33522487064,13899.047879910207,-130.64111801168266,2784.2754300617476,4407.893248224079,-21361.94258697995,0.0
-1390.3573278710976,10798.780524112635,15020.584610071395,13897.892712321589,-130.65302695589523,2781.488737116011,4404.130021852913,-21383.724045944706,0.0
-1390.690778309049,10800.054781143377,15023.08548835603,13902.727743671885,-125.29400206024734,2779.9882101452295,4397.734918810773,-21396.287982088947,0.0
-1390.8098677511746,10799.733239649639,15023.59757295717,13904.299724307943,-123.98401819686676,2777.058609868942,4393.018976902603,-21418.128985774765,0.0
-1390.36923681531,10802.055483771086,15024.859921043699,13906.979236755764,-121.89995295967036,2780.0239369778674,4400.140525541708,-21434.575237732297,0.0
-1388.8687098445287,10804.746905163121,15027.813339208413,13910.18274274894,-117.97000136952857,2782.2151827129765,4398.020733471874,-21430.06174787574,0.0
-1391.667311734478,10801.26949345306,15025.741182915428,13907.872407571705,-119.85161455511161,2777.856509131183,4390.899184832768,-21417.188179181976,0.0
-1389.8452432699578,10801.555308114159,15025.431550365904,13905.073805681755,-123.8768376989538,2773.5692892146644,4385.147164778106,-21395.918804818357,0.0
-1388.6067130718525,10801.995939050024,15024.085839669884,13902.358566401295,-126.84216480787896,2772.7713899524233,4382.205655557606,-21372.37482211015,0.0
-1390.476417313223,10800.185779529715,15023.407029849768,13901.179580924252,-128.87859426822516,2771.9258549133324,4380.3597692046615,-21365.550997076352,0.0
-1389.0830708403546,10803.484557076592,15026.39617484712,13903.466098213063,-126.75880219839111,2773.8670128199783,4382.181837669181,-21366.456076836508,0.0
-1386.6179193883565,10806.985786675083,15030.147492274073,13907.455594524268,-121.97140662494566,2780.0239369778674,4397.532466759159,-21372.601092050187,0.0
-1386.9394608820955,10806.997695619295,15030.469033767811,13908.313038507571,-117.79136720634033,2787.5384807759865,4397.032291102232,-21394.43018679179,0.0
-1389.7856985488952,10803.603646518717,15025.88409024598,13903.847184427865,-121.95949768073311,2784.620789443912,4394.412323375471,-21417.03336290721,0.0
-1388.463805741302,10803.687009128205,15024.836103155274,13902.60865422976,-124.5794654074943,2782.739176258329,4396.079575565228,-21423.607100112542,0.0
-1384.6053078164355,10803.258287136554,15023.680935566657,13900.727041044176,-127.89015189858341,2779.52376132094,4396.484479668455,-21413.10341131707,0.0
-1379.7226406892896,10805.2947165969,15026.622444787157,13903.823366539438,-124.5318296306441,2783.656164962695,4401.533872014576,-21391.774492232387,0.0
-1375.3520581632836,10811.666001750615,15032.076741236504,13909.075210937173,-119.13707790235857,2788.967554081493,4405.963999261646,-21382.509333635026,0.0
-1371.838919620581,10812.690170952894,15034.601437409567,13914.934411489749,-110.53882018089686,2797.7087191335054,4418.289756521636,-21366.813345162882,0.0
-1374.2207084630911,10809.31993974074,15030.814393149974,13911.52845344496,-114.46877177103865,2793.1952292769483,4412.1447413079595,-21353.368147146914,0.0
-1380.5562667841682,10804.675451497847,15027.14643833251,13906.550514764114,-120.13742921621282,2786.609583127408,4399.2354457815545,-21364.300557934035,0.0
-1384.6767614817109,10795.434110788907,15019.548531924902,13899.131242519694,-126.31817126252672,2782.3819079319524,4394.257507100708,-21385.772384349264,0.0
-1391.0718645238505,10792.64741784317,15015.940121828498,13892.331235374326,-134.49961593654913,2773.6526518241526,4392.101988198236,-21418.307619937954,0.0
-1390.3930547037353,10796.875093038627,15019.441351426989,13894.320029057824,-135.59523880410381,2773.426381884114,4390.530007562179,-21439.81517318582,0.0
-1392.3223036661684,10796.494006823825,15015.797214497949,13887.94874390411,-141.25198730506546,2773.0452956693125,4394.388505487046,-21448.615882958893,0.0
-1394.9779982255673,10794.13603586974,15011.081272589778,13882.625445841099,-144.47931118666676,2773.08102250195,4395.889032457827,-21448.711154512595,0.0
-1395.0613608350552,10791.813791748293,15010.997909980291,13884.17360858873,-144.20540546977807,2775.3794487349724,4395.079224251374,-21432.51499038353,0.0
-1392.1079426703425,10791.099255095538,15010.080921275923,13884.471332194043,-144.52694696351696,2775.3913576791847,4396.877474827469,-21402.909355071126,0.0
-1393.525107031636,10792.575964177897,15012.045897070995,13887.746291852494,-139.9539123858974,2779.750031260978,4400.783608529186,-21377.56712178682,0.0
-1391.6792206786906,10794.671938359304,15013.927510256579,13888.853823664263,-139.04883262574356,2780.7861094074706,4398.044551360299,-21362.669032576916,0.0
-1388.8210740676786,10796.065284832172,15014.868316849368,13890.032809141305,-137.1791283843731,2778.499592118661,4399.318808391042,-21367.456428150363,0.0
-1390.5716888669235,10798.077896404095,15017.976551288844,13894.808295770537,-133.1539052405309,2779.3808539903894,4400.56924753336,-21386.427376280953,0.0
-1393.8466485253748,10799.197337160074,15020.298795410294,13898.238071703752,-127.91396978700851,2781.429192394948,4394.650502259721,-21410.697804586132,0.0
-1394.0967363538384,10795.291203458357,15016.69038531389,13895.070292543214,-129.31922520408955,2778.225686401772,4390.20846606844,-21429.906931600977,0.0
-1392.70338988097,10798.80434200106,15019.250808319588,13897.10672200356,-128.6285064397616,2776.0463496108755,4390.518098617967,-21437.46911117595,0.0
-1392.5128467735692,10798.959158275824,15019.429442482777,13897.594988716275,-128.5451438302737,2771.1041377626666,4383.932452468426,-21429.192394948226,0.0
-1391.6315849018404,10794.69575624773,15017.988460233059,13899.952959670361,-125.24636628339714,2774.7125478590697,4384.46835495799,-21417.152452349335,0.0
-1391.619675957628,10798.780524112635,15020.263068577655,13901.715483413818,-125.17491261812184,2773.724105489428,4387.064504796327,-21398.26486682823,0.0
-1389.654700162557,10801.42430972782,15021.275328835722,13901.58448502748,-124.31746863481818,2774.1290095926547,4384.46835495799,-21372.72018149231,0.0
-1388.9044366771664,10799.97141853389,15019.286535152227,13900.226865387247,-124.88909795702061,2771.2589540374297,4377.918435641088,-21359.47743552795,0.0
-1388.5709862392148,10795.386475012057,15014.927861570432,13893.724581847195,-131.16511155703492,2765.1258477679658,4368.5460965458105,-21369.790581216024,0.0
-1388.5948041276401,10795.565109175246,15014.487230634568,13891.402337725749,-133.76126139537098,2768.841438362282,4375.929641957592,-21384.736306202773,0.0
-1388.6662577929153,10797.649174412441,15016.333116987513,13893.224406190267,-132.32027914565234,2771.8305833596323,4380.478858646787,-21404.32651943242,0.0
-1391.1314092449134,10796.160556385874,15014.64204690933,13890.330532746619,-134.83306637450056,2771.461406089043,4377.918435641088,-21430.883465026407,0.0
-1387.9398121959498,10798.685252558935,15017.643100850893,13892.771866310191,-133.65408089745804,2778.666317337636,4396.46066178003,-21444.281027265526,0.0
-1387.2014576547715,10799.768966482276,15018.405273280498,13894.141394894636,-131.58192460447418,2781.3101029528225,4400.247706039621,-21435.337410161905,0.0
-1387.9517211401621,10797.887353296694,15014.868316849368,13891.49760927945,-132.9633621331301,2777.9398717406707,4392.185350807724,-21416.533187250283,0.0
-1387.0942771568587,10800.197688473929,15014.534866411417,13892.128783322714,-131.61765143711185,2777.534967637444,4392.995159014177,-21397.502694398627,0.0
-1384.6886704259234,10802.2579358227,15016.333116987513,13892.700412644917,-132.3321880898649,2776.975247259454,4391.911445090835,-21376.388136309775,0.0
-1382.7713304077026,10800.876498294045,15017.702645571957,13894.058032285147,-132.6656385278163,2774.9745446317456,4392.435438636187,-21365.58672390899,0.0
-1385.7128396282028,10796.541642600676,15016.678476369676,13894.7725689379,-131.22465627809765,2775.010271464383,4392.506892301462,-21368.29005424524,0.0
-1387.2133665989843,10798.816250945272,15018.857813160574,13897.463990329936,-127.66388195854496,2778.332866899685,4393.781149332206,-21381.723343316997,0.0
-1387.296729208472,10802.68665781435,15021.382509333635,13898.309525369028,-128.75950482609963,2775.1174519622964,4386.93350640999,-21397.407422844924,0.0
-1388.5590772950025,10799.97141853389,15020.429793796631,13896.296913797107,-130.80784323065836,2772.1044890765206,4383.777636193663,-21411.87679006318,0.0
-1386.6417372767817,10798.685252558935,15020.036798637617,13895.999190191793,-130.46248384849443,2777.034791980517,4391.196908438083,-21425.51253118655,0.0
-1387.0347324357958,10798.411346842046,15017.571647185618,13895.177473041127,-130.66493590010776,2779.2260377156263,4392.840342739414,-21419.951054239285,0.0
-1386.4035583925306,10796.660732042801,15016.571295871763,13895.713375530691,-129.18822681775148,2781.1314687896343,4396.639295943218,-21406.041407399025,0.0
-1388.701984625553,10796.636914154376,15016.976199974992,13895.487105590653,-130.14094235475554,2781.0481061801465,4397.306196819121,-21386.927551937883,0.0
-1387.2371844874092,10799.399789211688,15018.393364336285,13894.129485950421,-131.97491976348837,2777.689783912207,4388.70793909766,-21364.88409620045,0.0
-1386.8084624957573,10801.162312955144,15019.060265212189,13894.498663221011,-131.9153750424256,2776.4869805467397,4380.597948088912,-21350.664816810666,0.0
-1385.6294770187149,10801.936394328959,15018.09564073097,13893.272041967119,-132.27264336880214,2779.928665424167,4399.473624665805,-21358.691445209923,0.0
-1386.6655551652068,10795.827105947921,15012.962885775361,13889.35399932119,-133.33253940371915,2779.0831303850755,4400.533520700722,-21379.81791224299,0.0
-1391.0480466354256,10795.49365550997,15015.868668163224,13892.533687425941,-131.87964820978794,2779.023585664013,4391.149272661231,-21397.907598501853,0.0
-1393.656105417974,10795.243567681508,15012.867614221661,13888.93718627375,-138.58438380145407,2770.246693779363,4380.050136655135,-21414.139489463563,0.0
-1393.9181021906504,10795.136387183595,15006.055698132082,13884.983416795183,-138.1437528655897,2774.20046325793,4387.469408899554,-21425.131444971747,0.0
-1393.1202029284093,10796.791730429139,15010.390553825451,13891.64051661,-129.54549514412798,2784.692243109187,4397.508648870735,-21424.012004215765,0.0
-1391.2266807986139,10793.3381366075,15012.962885775361,13893.141043580781,-129.61694880940328,2778.6067726165734,4391.089727940169,-21411.650520123138,0.0
-1390.5716888669235,10789.896451730072,15012.117350736271,13891.854877605825,-132.010646596126,2772.175942741796,4388.076765054394,-21393.620378585336,0.0
-1387.8683585306744,10803.05583508494,15022.454314312765,13898.869245747017,-124.4365580769437,2779.273673492476,4388.612667543958,-21373.125085595537,0.0
-1384.140858992146,10803.42501235553,15024.383563275198,13901.50112241799,-121.81659035018251,2783.930070679584,4390.792004334856,-21351.129265634954,0.0
-1385.200755027063,10802.889109865964,15024.49074377311,13901.108127258978,-121.81659035018251,2786.490493685282,4393.733513555356,-21355.392667663047,0.0
-1391.750674343966,10798.268439511494,15018.405273280498,13893.617401349282,-130.39103018321913,2776.796613096266,4387.886221946994,-21381.21125871586,0.0
-1393.2512013147475,10798.185076902007,15016.714203202315,13892.48605164909,-133.83271506064628,2773.9384664852537,4383.57518414205,-21405.68413907265,0.0
-1392.2627589451058,10801.257584508845,15020.70369951352,13895.28465353904,-130.9031147843588,2774.4267331979686,4381.4553920722165,-21421.55876170798,0.0
-1391.988853228217,10801.531490225732,15022.25186226115,13897.535443995213,-128.05687711755914,2777.7374196890573,4393.721604611143,-21432.074359447663,0.0
-1392.0603068934922,10798.923431443185,15020.79897106722,13898.166618038478,-126.46107859307733,2779.0593124966504,4392.340167082488,-21429.847386879916,0.0
-1390.690778309049,10803.365467634467,15023.538028236106,13900.250683275674,-124.162652360055,2779.52376132094,4389.196205810374,-21408.649466181574,0.0
-1390.4406904805853,10803.127288750216,15021.275328835722,13895.79673814018,-129.68840247467858,2776.129712220363,4386.00460876141,-21390.55977992271,0.0
-1389.4284302225185,10800.543047856092,15018.714905830022,13893.224406190267,-132.24882548037704,2775.510447121311,4386.016517705622,-21373.63717019668,0.0
-1386.844189328395,10802.11502849215,15021.13242150517,13895.332289315891,-127.73533562382026,2781.619735502349,4391.173090549657,-21355.01158144825,0.0
-1385.3198444691884,10804.389636836746,15023.299849351855,13896.701817900333,-127.22325102268057,2782.9892640867924,4393.00706795839,-21358.298450050912,0.0
-1385.65329490714,10803.996641677732,15022.073228097963,13892.29550854169,-135.27369731036495,2777.3086976974055,4395.579399908301,-21371.92228223007,0.0
-1384.379037876397,10805.223262931626,15023.025943634966,13893.855580233534,-133.09436051946815,2779.6547597072777,4399.545078331081,-21396.75243091324,0.0
-1384.3433110437595,10804.54445311151,15021.989865488475,13894.474845332586,-130.77211639802073,2780.1668443084177,4396.639295943218,-21424.190638378954,0.0
-1387.189548710559,10801.078950345656,15017.404921966643,13892.688503700705,-132.1297360382515,2778.7615888913365,4393.769240387993,-21433.110437594154,0.0
-1389.7142448836198,10801.28140239727,15016.404570652789,13892.188328043778,-131.76055876766245,2779.2974913809016,4389.97028718419,-21422.928290292424,0.0
-1388.4518967970894,10801.32903817412,15018.619634276323,13894.058032285147,-130.23621390845594,2776.4631626583146,4388.3625797154955,-21407.434753871894,0.0
-1387.3800918179597,10802.508023651164,15021.025241007257,13896.951905728796,-126.25862654146397,2778.6424994492113,4389.648745690451,-21387.689724367483,0.0
-1386.0105632335165,10804.377727892534,15022.418587480126,13900.060140168272,-119.97070399723712,2786.3833131873694,4392.125806086661,-21370.969566693064,0.0
-1385.7485664608403,10801.293311341482,15019.786710809152,13897.023359394074,-123.03130265986267,2785.3948708177277,4391.911445090835,-21365.07463930785,0.0
-1383.6049565025812,10798.80434200106,15018.202821228882,13896.77327156561,-124.80573534753275,2778.96404094295,4389.589200969388,-21366.860980939735,0.0
-1383.0571450688037,10796.660732042801,15015.20176728732,13893.903216010383,-128.3546007228729,2776.7847041520536,4390.875366944344,-21384.25994843427,0.0
-1387.0109145473707,10798.030260627243,15015.23749411996,13892.72423053334,-127.80678928909556,2780.524112634794,4390.732459613793,-21406.291495227488,0.0
-1388.356625243389,10794.93393513198,15009.568836674784,13884.090245979241,-137.61975932023745,2772.664209454511,4386.00460876141,-21424.274000988444,0.0
-1386.975187714733,10796.255827939574,15010.831184761315,13882.68499056216,-143.07405576958573,2769.6988823455854,4386.314241310936,-21438.850548704606,0.0
-1382.5688783560893,10800.578774688729,15017.190560970816,13888.877641552688,-137.47685198968685,2776.391708993039,4391.256453159145,-21428.954216063976,0.0
-1381.4970733769596,10801.829213831048,15018.822086327935,13891.711970275275,-132.74900113730416,2779.7738491494038,4393.935965606969,-21409.864178491254,0.0
-1380.4967220631054,10800.209597418141,15016.178300712749,13889.2706367117,-136.1549591820937,2775.605718675011,4389.196205810374,-21387.534908092723,0.0
-1383.3072328972676,10798.423255786258,15014.546775355631,13887.246116195567,-138.59629274566663,2771.6876760290816,4382.789193824022,-21370.314574761374,0.0
-1384.3314020995467,10800.150052697078,15019.608076645964,13895.42756086959,-127.97351450807129,2778.154232736497,4385.814065654009,-21360.858873056608,0.0
-1384.0932232152957,10803.091561917578,15022.466223256977,13898.559613197493,-123.57911409364002,2780.8694720169583,4387.207412126878,-21372.05328061641,0.0
-1383.8193174984071,10804.282456338833,15022.311406982213,13896.77327156561,-126.02044765721294,2779.607123930428,4385.051893224406,-21386.26065106198,0.0
-1385.7723843492654,10802.377025264825,15021.918411823199,13895.451378758016,-127.3899762416563,2781.333920841248,4387.755223560655,-21405.565049630524,0.0
-1387.3800918179597,10800.602592577156,15019.572349813327,13894.879749435813,-124.31746863481818,2790.003632227985,4395.186404749286,-21417.43826701044,0.0
-1387.6778154232736,10800.25723319499,15017.845552902507,13891.426155614174,-126.27053548567652,2788.9437361930677,4400.4025223143835,-21424.61936037061,0.0
-1385.5699322976523,10804.723087274697,15020.19161491238,13891.438064558386,-129.89085452629197,2782.9892640867924,4398.116005025574,-21428.382586741773,0.0
-1385.4032070786764,10803.925188012458,15018.798268439512,13887.71056501986,-136.0120518515431,2780.655111021132,4394.209871323857,-21411.817245342114,0.0
-1384.402855764822,10802.222208990062,15016.380752764364,13885.828951834274,-137.69121298551278,2783.691891795333,4402.212681834692,-21388.07081058229,0.0
-1383.962224828958,10800.793135684555,15013.79651187024,13883.673432931802,-138.02466342346418,2785.728321255679,4404.975556892004,-21359.56079813744,0.0
-1379.794094354565,10799.697512817002,15013.844147647089,13884.804782631994,-137.03622105382246,2785.0256935471384,4398.080278192937,-21347.354130319578,0.0
-1378.5555641564597,10801.007496680382,15016.380752764364,13889.413544042252,-131.9391929308507,2784.620789443912,4400.283432872258,-21351.510351849756,0.0
-1382.2116100297126,10799.637968095938,15015.380401450508,13888.389374839973,-136.60749906217066,2778.6901352260616,4400.223888151196,-21360.227699013343,0.0
-1383.2357792319922,10801.79348699841,15018.405273280498,13891.890604438464,-132.51082225305316,2776.7847041520536,4396.293936561055,-21391.929308507155,0.0
-1386.0701079545793,10798.661434670508,15019.1674457101,13896.439821127657,-122.87648638509953,2780.0120280336546,4385.20670949917,-21411.031255024085,0.0
-1389.4760659993688,10801.972121161598,15020.79897106722,13897.190084613048,-120.20888288148815,2781.5244639486486,4379.109330062342,-21424.059639992618,0.0
-1390.6193246437738,10809.129396633341,15025.264825146927,13897.47589927415,-123.48384253993962,2779.118857217713,4382.515288107133,-21419.951054239285,0.0
-1387.796904865399,10808.581585199563,15024.657468992087,13896.618455290845,-126.87789164051661,2776.963338315242,4384.063450854765,-21403.838252719703,0.0
-1383.7835906657695,10808.831673028028,15022.15659070745,13894.2009396157,-128.78332271452476,2775.808170726624,4382.372380776582,-21384.938758254386,0.0
-1382.818966184553,10805.973526417016,15019.3579888175,13891.12843200886,-129.89085452629197,2780.8099272958952,4389.589200969388,-21369.611947052832,0.0
-1386.129652675642,10797.208543476578,15014.16568914083,13889.687449759142,-131.04602211490942,2777.3325155858306,4387.2669568479405,-21358.3818126604,0.0
-1385.438933911314,10799.840420147551,15018.14327650782,13894.236666448334,-127.44952096271905,2778.666317337636,4389.744017244151,-21358.310358995124,0.0
-1384.5219452069475,10805.56862231379,15021.620688217885,13897.47589927415,-123.66247670312787,2783.5489844647823,4392.625981743588,-21372.11282533747,0.0
-1385.784293293478,10806.568973627644,15022.228044372727,13898.261889592179,-122.79312377561168,2785.9545911957175,4396.770294329556,-21398.74122459673,0.0
-1387.4158186505974,10802.317480543761,15019.715257143876,13896.487456904508,-124.0673808063546,2784.620789443912,4397.830190364473,-21422.95210818085,0.0
-1387.6182707022108,10799.256881881136,15018.881631048998,13897.725987102613,-121.43550413538088,2782.739176258329,4389.613018857814,-21435.670860599854,0.0
-1386.2130152851298,10798.137441125156,15015.80912344216,13893.164861469206,-127.44952096271905,2776.320255327764,4375.596191519641,-21437.957377888662,0.0
-1385.117392417575,10801.960212217386,15018.19091228467,13893.760308679834,-126.81834691945386,2781.0838330127845,4379.252237392894,-21419.438969638148,0.0
-1383.0095092919537,10803.365467634467,15017.702645571957,13890.687801072994,-129.16440892932636,2783.608529185845,4388.1363097754565,-21392.19130527983,0.0
-1382.1877921412877,10804.484908390446,15019.250808319588,13890.771163682484,-131.61765143711185,2777.8088733543327,4388.219672384944,-21371.862737509007,0.0
-1379.4010991955508,10806.354612631818,15022.001774432687,13891.045069399373,-132.7132743046665,2775.46281134446,4387.659952006955,-21354.89249200612,0.0
-1381.1278961063708,10806.950059842444,15022.894945248629,13893.498311907157,-128.5213259418486,2779.738122316766,4386.183242924598,-21362.478489469515,0.0
-1382.4616978581764,10807.855139602598,15023.025943634966,13895.403742981165,-126.67543958890323,2779.047403552438,4382.670104381897,-21378.531746268032,0.0
-1380.7349009473564,10809.034125079641,15024.121566502521,13897.559261883636,-124.47228490958135,2780.69083785377,4384.8137143401555,-21392.79866143467,0.0
-1381.0921692737331,10804.080004287218,15021.060967839896,13893.915124954598,-127.60433723748221,2775.665263396074,4382.658195437683,-21410.757349307198,0.0
-1381.7233433169981,10803.05583508494,15021.882684990562,13894.141394894636,-126.46107859307733,2776.606069988865,4382.908283266147,-21427.846684252207,0.0
-1379.639278079802,10807.009604563505,15023.08548835603,13894.593934774713,-127.17561524583037,2778.1304148480713,4383.730000416813,-21420.427412007786,0.0
-1383.9860427173828,10804.17527584092,15018.14327650782,13889.580269261229,-131.9868287077009,2775.200814571784,4379.025967452855,-21411.37661440625,0.0
-1383.0928719014414,10802.972472475452,15015.821032386373,13887.829654461984,-133.60644512060784,2772.652300510298,4378.454338130653,-21397.78850905973,0.0
-1380.8063546126318,10804.068095343007,15017.774099237233,13890.247170137132,-130.9269326727839,2776.2249837740633,4386.647691748888,-21369.5762202202,0.0
-1381.3660749906217,10802.484205762737,15017.381104078218,13890.80689051512,-129.81940086101667,2776.3798000488264,4380.931398526864,-21361.752043872548,0.0
-1384.1884947689962,10802.889109865964,15015.737669776887,13888.603735835799,-132.0344644845511,2775.867715447687,4383.134553206185,-21367.9685127515,0.0
-1387.1776397663466,10806.473702073943,15019.750983976515,13890.163807527642,-131.97491976348837,2779.7023954841284,4388.576940711321,-21384.06940532687,0.0
-1384.7958509238363,10806.36652157603,15023.56184612453,13894.510572165223,-127.00889002685467,2784.3587926712357,4389.196205810374,-21402.80217457321,0.0
-1384.724397258561,10800.078599031804,15017.119107305542,13890.247170137132,-126.86598269630406,2781.8579143866,4384.539808623266,-21422.72583824081,0.0
-1385.6056591302897,10801.948303273173,15018.667270053174,13889.532633484378,-129.0810463198385,2780.047754866292,4386.528602306762,-21430.812011361133,0.0
-1386.153470564067,10803.960914845093,15020.358340131355,13890.092353862368,-131.9153750424256,2781.167195622272,4389.6011099136,-21429.71638849358,0.0
-1385.7366575166277,10803.889461179819,15019.048356267975,13890.640165296145,-131.11747578018472,2781.9055501634502,4390.649097004305,-21412.305512054827,0.0
-1384.8196688122614,10801.543399169946,15014.987406291493,13887.079390976593,-132.8680905794297,2781.595917613924,4392.3520760267,-21391.655402790264,0.0
-1382.5331515234516,10803.484557076592,15015.332765673658,13886.614942152302,-133.2729946826564,2782.941628309942,4392.4473475804,-21370.648025199323,0.0
-1380.3061789557046,10802.62711309329,15015.642398223185,13887.210389362932,-133.2253589058062,2781.5244639486486,4392.042443477173,-21355.499848160962,0.0
-1383.5811386141563,10799.375971323261,15014.058508642916,13884.757146855145,-137.16721944016055,2773.5454713262393,4383.170280038823,-21357.190918239143,0.0
-1383.2357792319922,10798.959158275824,15014.713500574608,13885.435956675261,-135.30942414300262,2775.3675397907596,4384.563626511692,-21368.992681953783,0.0
-1383.188143455142,10799.733239649639,15014.653955853542,13884.387969584557,-135.77387296729208,2776.8204309846906,4390.184648180016,-21392.227032112467,0.0
-1384.7958509238363,10800.924134070894,15014.391959080867,13884.626148468808,-135.8929624094176,2779.52376132094,4387.969584556481,-21414.03230896565,0.0
-1382.5926962445144,10801.638670723647,15014.522957467205,13883.994974425543,-136.7861332253589,2781.0481061801465,4387.767132504868,-21425.81025479186,0.0
-1381.0088066642452,10801.28140239727,15014.439594857718,13883.208984107514,-138.58438380145407,2778.332866899685,4385.754520932946,-21418.283802049526,0.0
-1384.0813142710833,10797.065636146028,15010.90263842659,13880.874831041852,-138.90592529519296,2779.118857217713,4391.28027104757,-21397.65751067339,0.0
-1383.6645012236438,10798.077896404095,15011.307542529816,13881.208281479805,-138.37002280562817,2781.4411013391605,4396.65120488743,-21379.99654640618,0.0
-1382.7356035750652,10794.93393513198,15009.759379782185,13879.100398354183,-140.7399027039258,2779.892938591529,4394.555230706022,-21362.704759409553,0.0
-1384.4981273185226,10797.994533794606,15013.856056591301,13884.447514305619,-135.73814613465441,2780.3335695273936,4393.614424113231,-21355.237851388287,0.0
-1385.2602997481258,10800.007145366526,15015.904394995861,13887.901108127258,-132.0582823729762,2781.0004704032963,4390.006014016827,-21365.765358072178,0.0
-1385.3436623576138,10800.590683632943,15014.808772128306,13887.984470736747,-130.9269326727839,2779.8453028146787,4388.541213878683,-21380.270452123066,0.0
-1384.6291257048606,10803.091561917578,15017.369195134006,13891.723879219488,-126.99698108264212,2781.834096498175,4391.018274274894,-21398.550681489334,0.0
-1384.9983029754499,10799.64987704015,15015.05885995677,13888.544191114735,-130.74829850959563,2774.700638914857,4382.122292948118,-21424.29781887687,0.0
-1384.986394031237,10795.207840848869,15011.867262907806,13885.72177133636,-134.17807444281027,2766.376286910284,4367.176567961367,-21437.778743725474,0.0
-1385.677112795565,10795.01729774147,15010.962183147652,13885.507410340537,-134.09471183332244,2770.69923365944,4370.927885388321,-21429.275757557712,0.0
-1390.5597799227107,10792.290149516793,15007.746768210263,13882.053816518895,-137.26249099386095,2769.4130676844843,4373.273947398194,-21416.914273465085,0.0
-1391.5482222923526,10791.635157585104,15008.258852811403,13883.304255661213,-133.51117356690744,2774.5100958074563,4373.809849887759,-21399.979754794836,0.0
-1389.4998838877939,10796.398735270124,15011.128908366629,13883.578161378102,-132.58227591832846,2780.6789289095573,4377.287261597823,-21384.24803949006,0.0
-1386.105834787217,10798.94724933161,15012.784251612173,13884.649966357232,-129.79558297259157,2786.490493685282,4381.955567729143,-21371.410197628928,0.0
-1387.9755390285875,10796.279645827999,15009.628381395847,13880.86292209764,-136.02396079575564,2777.3444245300434,4380.621765977337,-21379.353463418698,0.0
-1384.8434867006865,10798.70907044736,15007.937311317664,13878.302499091944,-143.27650782119912,2767.138459339887,4378.894969066518,-21394.930362448715,0.0
-1386.2725600061926,10794.124126925528,15003.01891735788,13873.753282402748,-146.73010164283883,2765.51884292698,4379.323691058169,-21425.01235552962,0.0
-1390.1667847636968,10786.419040020006,14998.338702282348,13870.383051190596,-147.12309680185302,2766.400104798709,4377.954162473726,-21451.307304350932,0.0
-1389.3807944456682,10790.194175335384,15002.363925426193,13873.086381526844,-145.1700299509947,2766.7335552366603,4377.060991657785,-21448.806426066298,0.0
-1384.6053078164355,10798.38752895362,15010.497734323364,13879.957842337488,-140.0253660511727,2771.1279556510917,4379.287964225532,-21438.683823485626,0.0
-1386.8918251052453,10794.314670032927,15005.96042657838,13873.407923020584,-147.8019066219684,2764.947213604778,4374.28620765626,-21426.381884114064,0.0
-1389.8809701025955,10789.634454957395,15001.804205048202,13868.703890056628,-152.6250290280515,2760.4218148040086,4370.701615448282,-21409.73318010492,0.0
-1388.5948041276401,10791.373160812427,15004.197902834923,13871.133314675988,-149.31434253696239,2764.6137631668266,4374.250480823623,-21389.440339166733,0.0
-1385.0816655849374,10792.992777225334,15006.686872175347,13874.360638557588,-145.2176657278449,2767.8529959926404,4375.417557356453,-21370.278847928737,0.0
-1383.6049565025812,10793.933583818127,15008.377942253528,13876.980606284349,-142.37142806104524,2769.2820692981463,4376.465544447157,-21370.648025199323,0.0
-1381.7114343727856,10796.327281604848,15009.997558666437,13878.373952757218,-139.19173995629416,2773.247747720926,4379.692868328758,-21383.42632233939,0.0
-1383.5930475583687,10801.495763393097,15014.022781810278,13883.66152398759,-132.92763530049243,2780.08348169893,4385.837883542435,-21400.861016666568,0.0
-1381.7233433169981,10805.556713369577,15017.90509762357,13887.567657689307,-128.5213259418486,2784.477882113361,4388.076765054394,-21420.129688402474,0.0
-1382.5331515234516,10798.554254172597,15014.21332491768,13885.781316057424,-130.15285129896807,2781.214831399122,4383.313187369374,-21442.494685633643,0.0
-1389.333158668818,10787.729023883388,15004.114540225437,13875.087084154555,-143.89577292025174,2765.4831160943427,4366.188125591725,-21443.423583282223,0.0
-1400.6942914475917,10774.43864214218,14989.633264062973,13858.11683865167,-163.28353409828452,2742.796577369433,4347.181450628494,-21439.934262627943,0.0
-1404.7314235356464,10767.924449657916,14982.082993432217,13850.935745291501,-169.92872496888788,2736.651562155757,4338.642737628095,-21430.633377197944,0.0
-1405.4935959652496,10768.65089525488,14982.79753008497,13850.769020072526,-169.89299813625024,2737.6400045253986,4342.1558761707975,-21417.700263783114,0.0
-1406.4820383348913,10771.104137762666,14985.572314086494,13852.93644791921,-168.1542922812178,2738.723718448741,4343.334861647841,-21404.29079259978,0.0
-1408.6375572373631,10772.545120012384,14988.87109163337,13857.128396282027,-162.74763160871973,2743.892200236988,4346.097736705152,-21404.600425149307,0.0
-1411.0431639682984,10771.925854913332,14986.536938567711,13854.960968435344,-164.83169684591613,2742.2725838240813,4341.870061509697,-21425.822163736073,0.0
-1418.5696167106305,10764.744761553164,14977.414687300896,13844.362008086173,-174.39457904859444,2735.1629441291884,4333.105078569259,-21451.235850685658,0.0
-1420.9275876647155,10755.705872895838,14966.375096015863,13831.405076782916,-187.99459333932748,2721.693928224793,4322.9824759885905,-21474.053387796906,0.0
-1420.8323161110152,10754.64597686092,14965.124656873544,13828.392113897142,-193.9252475571778,2715.6560935090297,4320.743594476631,-21493.095789592775,0.0
-1420.5465014499139,10757.81375602146,14968.602068583608,13832.131522379883,-190.9003757271899,2720.1100386445237,4324.2329151309095,-21487.963034637163,0.0
-1418.2242573284666,10761.791343388451,14973.210829993866,13837.728726159783,-183.9455523070602,2730.6970900494816,4332.854990740795,-21465.705217903906,0.0
-1418.47434515693,10760.076455421844,14969.054608463686,13833.024693195825,-186.04152648846915,2733.81723343317,4337.7019310353035,-21448.27052357673,0.0
-1419.1531549770455,10757.11112831292,14964.969840598782,13826.689134874747,-193.91333861296525,2726.469414854026,4329.973026241358,-21436.40921514103,0.0
-1415.4971091037924,10759.612006597554,14967.649353046605,13829.17810421517,-192.3770848095462,2727.481675112093,4332.843081796583,-21418.045623165275,0.0
-1415.5923806574926,10755.836871282176,14965.94637402421,13828.404022841354,-192.57953686115957,2728.827385808111,4338.321196134356,-21419.200790753897,0.0
-1416.938091353511,10754.395889032457,14966.398913904288,13830.607177520676,-189.78093497121012,2734.210228592184,4345.06165855866,-21428.739855068146,0.0
-1420.6179551151893,10756.372773771742,14967.43499205078,13831.619437778743,-190.32874640498747,2731.9237113033746,4347.919805169673,-21447.901346306142,0.0
-1417.9622605557904,10760.70762946511,14972.686836448514,13839.288797851626,-180.49195848542047,2737.1755557011093,4347.193359572707,-21468.33709457488,0.0
-1416.7832750787477,10760.326543250309,14972.448657564262,13839.538885680091,-179.4201535062909,2734.8294936912366,4342.67986971615,-21476.637628691027,0.0
-1421.2253112700294,10754.836519968321,14966.45845862535,13833.774956681214,-185.07690200725253,2728.3033922627587,4338.035381473255,-21479.376685859916,0.0
-1422.2732983607339,10754.264890646118,14965.732013028384,13832.988966363186,-184.58863529453797,2727.4340393352427,4335.308233248581,-21461.870537867464,0.0
-1420.034416848774,10752.014100189946,14965.624832530471,13834.799125883495,-182.05203017726464,2728.386754872247,4329.377579030731,-21439.16018125413,0.0
-1420.1296884024746,10749.822854454838,14965.303291036733,13837.180914726005,-179.97987388428078,2729.410924074526,4329.901572576084,-21418.557707766417,0.0
-1414.1990341846245,10755.777326561112,14970.293138661791,13842.90911689224,-172.4653300861612,2737.902001298075,4341.024526470605,-21400.325114177,0.0
-1409.2806402248407,10765.637932369105,14978.284040228413,13850.638021686187,-164.31961224477644,2743.118118863172,4345.252201666061,-21395.025634002417,0.0
-1405.517413853675,10770.103786448812,14980.09419974872,13849.959211866071,-166.35604170512264,2739.914612869996,4336.689670777237,-21406.696399330718,0.0
-1410.888347693535,10763.541958187698,14973.818186148708,13842.921025836455,-173.31086512525232,2735.7107555629655,4328.9845838717165,-21435.813767930405,0.0
-1410.7454403629845,10763.27996141502,14975.09244317945,13843.718925098696,-170.5598990121531,2742.5464895409696,4338.797553902858,-21452.92692076384,0.0
-1407.494298592958,10766.471558463985,14977.450414133535,13846.088804996993,-168.45201588653157,2744.7972799971417,4349.336969530967,-21456.523421916027,0.0
-1401.5279175424703,10773.581198158878,14983.476339905086,13853.698620348814,-161.79491607171565,2751.93073758046,4358.530674463055,-21447.448806426066,0.0
-1401.7065517056585,10774.748274691707,14984.321874944177,13851.483556725278,-166.796672640987,2745.797631310996,4348.3485271613245,-21434.872961337613,0.0
-1407.8396579751222,10767.483818722052,14977.819591404123,13844.25482758826,-173.73958711690415,2740.950691016488,4342.191603003436,-21425.703074293946,0.0
-1405.934226901114,10767.57909027575,14978.843760606404,13845.314723623176,-173.12032201785152,2742.856122090496,4345.919102541964,-21405.338779690486,0.0
-1392.4533020525066,10778.678226281849,14990.657433265253,13857.116487337815,-159.055858902829,2757.7065755235467,4359.971656712774,-21379.36537236291,0.0
-1387.9279032517372,10785.680685478828,14997.26689730322,13864.285671753769,-152.0414907616365,2762.231974324316,4370.332438177693,-21376.43577208663,0.0
-1394.3349152380895,10785.668776534616,14997.576529852746,13863.440136714678,-153.47056406714262,2761.8032523326647,4361.1863690224545,-21397.490785454414,0.0
-1399.8487564085005,10780.845654128534,14991.907872407572,13855.73504980916,-161.79491607171565,2753.919531263956,4354.279181379175,-21423.523737503052,0.0
-1402.0519110878224,10776.558434212015,14988.752002191244,13854.234522838377,-163.46216826147278,2752.883453117464,4355.970251457357,-21447.09153809969,0.0
-1400.9562882202679,10783.227442971043,14994.527840134333,13860.12945022359,-157.05515627512042,2759.2547382711787,4361.877087786782,-21462.084898863293,0.0
-1394.5492762339154,10791.932881190418,15003.602455624297,13869.787603979968,-145.2176657278449,2770.9969572647537,4369.6417194133655,-21450.4260424792,0.0
-1393.4655623105732,10793.15950244431,15006.150969685783,13874.348729613377,-139.8110050553468,2771.544768698531,4365.83085726535,-21435.93285737253,0.0
-1395.0375429466299,10789.24145979838,15002.602104310443,13869.728059258907,-145.83693082689754,2761.1363514567615,4364.008788800828,-21418.95070292543,0.0
-1392.6319362156946,10787.252666114886,14998.374429114987,13863.297229384129,-153.61347139769325,2756.1822306643403,4361.484092627768,-21394.227734740176,0.0
-1388.5352594065773,10789.193824021531,15000.208406523718,13863.868858706332,-152.19630703639967,2764.1612232867496,4363.4490684228385,-21373.017905097622,0.0
-1386.2725600061926,10791.444614477703,15000.375131742694,13864.285671753769,-152.3153964785252,2766.697828404023,4367.9030135583325,-21375.494965493832,0.0
-1383.9026801078949,10791.658975473529,15003.114188911582,13869.156429936704,-147.19455046712832,2771.032684097391,4372.666591243353,-21386.68937305363,0.0
-1386.3321047272555,10791.94479013463,15004.174084946499,13870.68077479591,-145.55111616579632,2770.246693779363,4369.820353576553,-21411.47188595995,0.0
-1390.7503230301118,10789.027098802557,15002.876010027332,13869.489880374656,-147.09927891342792,2766.697828404023,4365.6760409905855,-21439.279270696257,0.0
-1392.09603372613,10789.312913463657,15005.591249307792,13873.419831964797,-141.20435152821526,2770.1871490583003,4367.402837901405,-21454.070179408245,0.0
-1387.749269088549,10796.756003596502,15012.569890616347,13883.673432931802,-128.0449681733466,2780.238297973693,4371.1898821609975,-21449.354237500076,0.0
-1381.9377043128243,10798.685252558935,15014.904043682007,13887.06748203238,-124.7223727380449,2784.1206137869844,4374.8102012016125,-21429.50202749775,0.0
-1384.1884947689962,10799.757057538063,15013.629786651263,13884.137881756093,-129.79558297259157,2780.3097516389685,4374.714929647912,-21410.983619247236,0.0
-1386.2130152851298,10799.97141853389,15011.069363645565,13878.89794630257,-137.31012677071115,2766.614465794535,4364.199331908229,-21395.894986929932,0.0
-1382.7117856866398,10802.781929368051,15014.320505415593,13881.732275025159,-134.78543059765036,2767.924449657916,4363.889699358703,-21373.017905097622,0.0
-1382.0448848107371,10800.86458934983,15011.676719800405,13877.957139709779,-138.1913886424399,2767.5314544989014,4367.557654176169,-21383.235779231993,0.0
-1384.2123126574213,10799.780875426488,15009.163932571557,13873.908098677512,-141.2162604724278,2768.817620473857,4371.201791105209,-21416.00919370493,0.0
-1383.9145890521077,10800.126234808653,15007.758677154476,13872.431389595156,-142.60960694529626,2773.0333867250997,4377.477804705224,-21433.955972633245,0.0
-1384.617216760648,10799.959509589677,15005.591249307792,13868.727707945052,-148.04008550621944,2764.137405398324,4362.436808164772,-21448.199069911458,0.0
-1386.2487421177675,10795.457928677333,15001.697024550289,13866.405463823605,-147.3493667418915,2758.873652056377,4356.5418807795595,-21458.976664423815,0.0
-1387.880267474887,10787.359846612799,14999.255690986714,13867.465359858523,-142.8954216063975,2768.210264319017,4366.235761368575,-21447.46071537028,0.0
-1387.403909706385,10793.826403320214,15008.211217034554,13874.265367003887,-137.78648453921318,2780.0358459220797,4375.6795541291285,-21434.932506058674,0.0
-1384.3194931553342,10805.032719824223,15016.666567425464,13879.552938234261,-135.988233963118,2778.9759498871626,4379.252237392894,-21427.94195580591,0.0
-1381.54470915381,10803.294013969193,15014.177598085042,13877.3140567223,-139.7633692784966,2778.3685937323226,4380.788491196313,-21410.864529805112,0.0
-1380.4252683978302,10805.413806039025,15017.631191906681,13882.649263729523,-131.40329044128592,2786.895397788509,4386.790599079439,-21391.2147718544,0.0
-1377.5313949541803,10808.188590040549,15018.119458619396,13880.898648930279,-133.0824515752556,2782.7153583699037,4379.192692671831,-21386.534556778868,0.0
-1384.140858992146,10802.770020423839,15014.12996230819,13878.969399967846,-136.55986328532043,2774.0456469831665,4371.4876057663105,-21407.18466604343,0.0
-1388.356625243389,10798.351802120982,15011.55763035828,13877.361692499151,-138.46529435932857,2771.4256792564056,4368.951000649037,-21430.752466640068,0.0
-1386.5702836115065,10799.340244490624,15010.080921275923,13875.575350867268,-139.70382455743385,2767.3170935030757,4361.388821074067,-21446.746178717527,0.0
-1385.9867453450915,10805.354261317962,15013.820329758666,13881.041556260829,-131.87964820978794,2774.7601836359195,4370.189530847142,-21458.45267087846,0.0
-1384.0217695500205,10805.56862231379,15016.059211270624,13882.649263729523,-129.71222036310368,2775.8796243918996,4371.4518789336735,-21448.103798357755,0.0
-1384.5814899280103,10801.460036560458,15012.748524779536,13879.588665066898,-133.43971990163212,2774.6768210264318,4375.2627410816895,-21428.501676183896,0.0
-1384.009860605808,10801.102768234083,15011.200362031903,13872.395662762518,-140.57317748495007,2779.8214849262536,4381.360120518515,-21415.925831095446,0.0
-1382.3426084160508,10802.436569985886,15014.118053363978,13873.57464823956,-140.62081326180027,2783.370350301594,4379.609505719271,-21394.656456731827,0.0
-1381.568527042235,10799.983327478103,15013.081975217487,13870.609321130634,-144.8723063456809,2775.8915333361124,4376.5489070566455,-21368.70686729268,0.0
-1383.6645012236438,10802.86529197754,15014.808772128306,13874.539272720776,-142.68106061057156,2777.8088733543327,4390.3632823432035,-21368.182873747326,0.0
-1383.4144133951804,10805.735347532764,15014.237142806103,13876.825790009587,-139.33464728684478,2781.3220118970353,4386.8144169678635,-21401.087286606606,0.0
-1384.248039490059,10803.603646518717,15013.629786651263,13878.99321785627,-134.67825009973743,2782.0008217171508,4381.28866685324,-21434.9563239471,0.0
-1386.2725600061926,10801.900667496324,15013.879874479728,13881.041556260829,-131.8439213771503,2777.2253350879178,4377.942253529513,-21453.022192317538,0.0
-1385.7723843492654,10806.056889026504,15017.571647185618,13882.95889627905,-132.4989133088406,2770.592053161527,4371.177973216784,-21459.50065796917,0.0
-1386.9870966589458,10802.948654587026,15015.999666549562,13881.041556260829,-133.999440279622,2769.5440660708227,4363.437159478626,-21452.59347032589,0.0
-1382.842784072978,10806.87860617717,15022.692493197015,13888.079742290447,-126.88980058472916,2775.605718675011,4365.9023109306245,-21431.467003292822,0.0
-1380.9254440547572,10811.022918763138,15026.348539070268,13890.306714858194,-126.06808343406314,2777.8922359638204,4367.7124704509315,-21411.972061616878,0.0
-1379.1391024228747,10811.808909081165,15025.550639808029,13889.223000934851,-128.0687860617717,2775.7009902287114,4367.2242037382175,-21388.392352076025,0.0
-1378.65083571016,10813.65479543411,15026.384265902905,13889.223000934851,-128.15214867125954,2778.2614132344097,4373.404945784531,-21371.481651294205,0.0
-1381.3898928790468,10813.70243121096,15026.95589522511,13889.592178205441,-126.00853871300039,2782.3819079319524,4374.655384926849,-21378.936650371263,0.0
-1380.9730798316075,10815.857950113432,15029.956949166672,13893.188679357632,-121.53077568908128,2788.39592475929,4381.9079319522925,-21388.332807354964,0.0
-1382.6760588540021,10816.370034714571,15029.694952393995,13891.22370356256,-124.0197450295044,2788.9794630257056,4381.824569342805,-21408.030201082525,0.0
-1381.9615222012492,10816.608213598824,15028.837508410692,13888.66328055686,-126.91361847315426,2787.8123864928752,4381.217213187964,-21426.060342620323,0.0
-1381.8186148706986,10816.64394043146,15026.169904907081,13886.26958277014,-130.17666918739317,2788.515014201416,4384.88516800543,-21438.290828326615,0.0
-1380.1751805693666,10813.404707605647,15022.287589093788,13884.17360858873,-131.6533782697495,2788.562649978266,4383.194097927248,-21424.559815649543,0.0
-1378.2697494953584,10810.296473166172,15021.382509333635,13885.102506237308,-129.91467241471707,2786.3952221315817,4384.8137143401555,-21404.33842837663,0.0
-1377.852936447919,10814.547966250051,15027.289345663059,13890.330532746619,-123.13848315777565,2788.25301742874,4387.302683680578,-21386.987096658944,0.0
-1380.8658993336946,10818.668460947594,15029.980767055096,13892.06923860165,-121.66177407541933,2788.145836930827,4385.706885156096,-21379.794094354562,0.0
-1378.4722015469717,10815.453046010205,15025.70545608279,13886.817394203918,-127.47333885114415,2784.061069065922,4383.4322768115,-21368.504415241066,0.0
-1378.9128324828364,10811.68981963904,15020.882333676707,13882.601627952674,-131.48665305077378,2783.572802353207,4379.0021495644305,-21376.197593202374,0.0
-1378.1030242763827,10815.381592344931,15023.88338761827,13885.364503009985,-128.8666853240126,2784.0015243448593,4380.407404981511,-21393.239292370534,0.0
-1378.7818340964982,10811.856544858014,15022.430496424338,13884.769055799357,-127.91396978700851,2785.3472350408774,4383.348914202012,-21412.68659826963,0.0
-1377.9482080016196,10813.41661654986,15024.15729333516,13886.650668984941,-125.85372243823723,2782.024639605576,4372.261687140127,-21425.643529572888,0.0
-1376.9240387993402,10816.346216826147,15026.693898452433,13888.865732608476,-123.56720514942747,2785.0018756587137,4383.515639420987,-21434.980141835524,0.0
-1380.0203642946035,10814.178788979463,15025.181462537437,13886.996028367104,-126.19908182040122,2782.5129063182903,4384.575535455904,-21434.11078890801,0.0
-1377.2574892372916,10816.608213598824,15027.396526160972,13890.485349021383,-123.48384253993962,2781.0481061801465,4369.379722640689,-21421.118130772116,0.0
-1374.625612566318,10817.52520230319,15028.468331140102,13891.616698721575,-121.42359519116833,2783.9657975122213,4368.891455927975,-21405.68413907265,0.0
-1375.5306923264718,10813.845338541512,15024.63365110366,13888.460828505249,-123.86492875474126,2787.1216677285474,4380.109681376198,-21386.54646572308,0.0
-1378.5436552122471,10810.546560994635,15022.740128973866,13887.246116195567,-124.37701335588095,2787.1454856169726,4377.382533151523,-21371.958009062706,0.0
-1377.9958437784699,10812.99980350242,15025.1457357048,13892.152601211139,-116.99346794409941,2792.980868281122,4383.277460536736,-21375.685508601237,0.0
-1376.7692225245771,10812.737806729745,15025.229098314288,13892.890955752317,-113.78996195092323,2796.0295579995354,4382.3604718323695,-21401.754187482507,0.0
-1377.5552128426054,10812.404356291792,15023.383211961343,13887.782018685133,-117.68418670842736,2799.792784370701,4388.969935870336,-21426.107978397176,0.0
-1377.5909396752431,10811.284915535813,15019.953436028129,13879.469575624771,-129.14059104090126,2795.850923836347,4395.34122102405,-21445.78155423631,0.0
-1376.209502146587,10819.95462692255,15027.598978212587,13882.661172673736,-129.50976831149035,2799.2449729369246,4399.49744255423,-21450.854764470856,0.0
-1374.935245115844,10822.43168731876,15029.492500342383,13883.244710940151,-131.31992783179805,2796.684549931226,4399.009175841516,-21446.567544554335,0.0
-1374.1373458536032,10821.907693773408,15030.111765441434,13885.80513394585,-129.14059104090126,2798.4708915631086,4404.987465836216,-21427.96577369433,0.0
-1373.6848059735264,10822.646048314587,15031.755199742767,13890.282896969768,-123.46002465151452,2800.364413692904,4408.202880773605,-21406.636854609653,0.0
-1370.3383926497997,10826.194913689927,15038.424208501796,13898.476250588003,-111.99171137482806,2806.7118809581934,4408.524422267344,-21387.213366598982,0.0
-1369.3618592243704,10831.11330764971,15046.272202737866,13906.0622480514,-106.45405231599192,2804.7826319957603,4399.628440940568,-21371.31492607523,0.0
-1370.0406690444856,10831.470575976087,15046.069750686253,13903.763821818377,-111.8130772116398,2793.492952882262,4387.624225174317,-21379.48446180504,0.0
-1370.0883048213361,10830.31540838747,15042.830517860439,13901.16767198004,-112.43234231069245,2794.3623058097783,4381.145759522689,-21396.788157745876,0.0
-1372.9107245997104,10826.575999904728,15036.637866869913,13893.65312818192,-118.38681441696787,2794.5766668056044,4385.623522546608,-21417.188179181976,0.0
-1375.5068744380467,10823.158132915727,15031.39793141639,13886.674486873366,-127.02079897106722,2793.945492762339,4391.411269433908,-21435.61131587879,0.0
-1374.5303410126176,10820.883524571129,15028.599329526442,13885.34068512156,-128.43796333236077,2795.8151970037093,4393.995510328032,-21443.292584895884,0.0
-1370.7909325298765,10823.634490684228,15031.659928189067,13889.330181432764,-124.0673808063546,2804.7707230515475,4404.153839741337,-21430.407107257906,0.0
-1369.742945439172,10822.312597876635,15031.719472910128,13891.330884060473,-120.80433009211568,2807.986137988936,4410.155947624463,-21414.1752162962,0.0
-1371.8031927879433,10819.073365050821,15030.254672771985,13890.068535973942,-123.7101124799781,2797.934989073544,4400.509702812297,-21402.385361525776,0.0
-1371.8746464532185,10821.21697500908,15034.232260138977,13894.331938002037,-120.05406660672497,2790.8134404344382,4392.387802859337,-21383.247688176205,0.0
-1368.635413627405,10824.62293305387,15037.638218183767,13899.548055567133,-112.76579274864386,2792.6831446758088,4389.648745690451,-21365.336636080527,0.0
-1370.0883048213361,10827.266718669056,15042.175525928747,13905.049987793333,-107.644946737247,2793.5405886591125,4385.099529001256,-21371.279199242592,0.0
-1371.7674659553056,10825.123108710797,15040.532091627416,13904.168725921603,-107.29958735508303,2789.884542785859,4374.441023931024,-21393.32265498002,0.0
-1371.7793748995182,10823.967941122179,15038.126484896482,13902.263294847595,-108.09748661732394,2790.2299021680233,4376.513180224007,-21416.04492053757,0.0
-1370.8623861951519,10824.944474547608,15038.960110991358,13903.489916101487,-106.15632871067815,2793.957401706552,4375.155560583776,-21435.09923127765,0.0
-1372.1961879469575,10827.51680649752,15039.603193978837,13903.83527548365,-106.57314175811743,2793.099957723248,4370.237166623993,-21438.886275537243,0.0
-1374.1849816304534,10824.170393173794,15034.839616293817,13897.892712321589,-113.20642368450824,2789.0032809141303,4373.917030385671,-21434.277514126985,0.0
-1372.339095277508,10825.13501765501,15036.280598543535,13898.916881523868,-111.99171137482806,2794.0407643160397,4379.478507332933,-21417.902715834727,0.0
-1370.755205697239,10827.885983768108,15039.460286648286,13903.287464049874,-106.60886859075508,2803.889461179819,4388.85084642821,-21398.21723105138,0.0
-1369.5166754991335,10825.83764536355,15037.078497805776,13900.667496323113,-109.51465097861748,2800.757408851918,4385.9450640403475,-21382.128247420223,0.0
-1370.219303207674,10820.681072519516,15030.88584681525,13891.235612506773,-120.3636991562513,2790.63480627125,4385.6830672676715,-21372.37482211015,0.0
-1373.029814041836,10814.667055692176,15024.34783644256,13884.721420022508,-124.17456130426756,2791.111164039752,4385.028075335981,-21381.651889651723,0.0
-1372.9345424881358,10812.201904240179,15019.429442482777,13879.648209787962,-130.15285129896807,2785.5496870924903,4379.4904162771445,-21404.70760564722,0.0
-1372.8154530460101,10810.927647209437,15019.0721741564,13881.637003471456,-127.23515996689312,2788.3721068708655,4382.741558047171,-21427.63232325638,0.0
-1372.4105489427834,10815.357774456505,15023.764298176146,13885.626499782662,-123.2456636556886,2790.194175335386,4386.230878701449,-21446.222185172173,0.0
-1371.6007407363302,10819.216272381373,15027.43225299361,13889.008639939026,-120.62569592892741,2790.337082665936,4379.954865101434,-21459.75074579763,0.0
-1371.3149260752289,10819.311543935071,15028.301605921126,13889.81844814548,-118.31536075169255,2793.7430407107254,4380.538403367849,-21453.78436474714,0.0
-1369.8620348812976,10822.33641576506,15031.505111914303,13892.712321589128,-115.80257352284433,2799.9118738128273,4388.207763440732,-21435.111140221863,0.0
-1367.754151755676,10825.039746101309,15033.541541374649,13893.343495632393,-119.45861939609743,2793.3738634401366,4388.89848220506,-21413.37731703396,0.0
-1370.0883048213361,10822.205417378722,15031.743290798553,13891.045069399373,-122.59067172399831,2785.2162366545394,4381.991294561781,-21392.024580060854,0.0
-1369.8024901602348,10820.669163575303,15033.863082868387,13894.2009396157,-117.01728583252451,2793.492952882262,4386.230878701449,-21373.64907914089,0.0
-1367.8136964767386,10822.538867816675,15033.886900756812,13893.522129795583,-115.98120768603259,2798.9710672200354,4390.220375012653,-21369.695309662322,0.0
-1369.004590897994,10819.799810647786,15030.766757373125,13891.140340953072,-117.08873949779982,2799.6022412633006,4391.018274274894,-21379.829821187202,0.0
-1370.5884804782631,10821.288428674356,15029.218594625494,13886.221946993288,-123.04321160407522,2795.1721140162317,4388.922300093484,-21404.350337320844,0.0
-1373.029814041836,10819.942717978338,15026.860623671408,13884.590421636169,-125.35354678131009,2790.825349378651,4385.159073722319,-21427.66805008902,0.0
-1374.8757003947815,10816.882119315711,15025.907908134404,13885.424047731049,-124.22219708111776,2791.0635282629014,4383.098826373548,-21438.445644601376,0.0
-1372.874997767073,10812.690170952894,15025.264825146927,13885.90040549955,-125.63936144241133,2786.8001262348084,4380.002500878284,-21431.705182177073,0.0
-1370.3741194824374,10809.91538695137,15022.001774432687,13881.708457136732,-132.2011897035268,2780.1787532526305,4378.799697512816,-21419.165063921257,0.0
-1369.480948666496,10812.213813184393,15023.097397300242,13879.60057401111,-132.939544244705,2782.4533615972277,4384.980439559131,-21404.14788526923,0.0
-1370.6242073109008,10812.66635306447,15024.788467378425,13883.066076776962,-127.74724456803281,2784.0015243448593,4373.786031999333,-21387.356273929534,0.0
-1370.2907568729495,10815.869859057644,15026.979713113533,13883.542434545465,-128.24742022495994,2784.0015243448593,4376.3940907818815,-21372.482002608056,0.0
-1368.1114200820527,10817.680018577954,15026.943986280896,13881.303553033506,-132.83236374679203,2783.608529185845,4381.860296175442,-21371.457833405777,0.0
-1365.8368117374553,10820.180896862588,15028.515966916952,13883.066076776962,-130.06948868948024,2786.490493685282,4378.370975521165,-21385.450842855524,0.0
-1366.1821711196194,10822.050601103958,15031.874289184892,13886.352945379627,-126.75880219839111,2791.920972246205,4385.635431490821,-21409.685544328066,0.0
-1371.0052935257024,10819.311543935071,15029.599680840294,13884.614239524595,-127.05652580370487,2794.290852144503,4388.660303320809,-21431.300278073846,0.0
-1372.2795505564454,10815.857950113432,15026.789170006134,13882.30390434736,-128.97386582192556,2787.502753943349,4381.836478287018,-21439.934262627943,0.0
-1369.7786722718097,10815.881768001858,15027.289345663059,13884.483241138256,-126.42535176043967,2788.3482889824404,4387.159776350028,-21436.421124085242,0.0
-1369.0164998422065,10815.65549806182,15027.968155483175,13887.30566091663,-122.41203756081003,2790.3728094985736,4391.506540987609,-21430.002203154676,0.0
-1368.2424184683905,10818.704187780233,15030.016493887735,13889.735085535991,-118.79171852019459,2793.9097659297013,4384.825623284368,-21408.851918233187,0.0
-1367.9327859188643,10819.668812261449,15028.956597852817,13885.51931928475,-121.69750090805698,2797.006091424965,4383.610910974688,-21377.57903073103,0.0
-1367.2539760987488,10821.514698614395,15030.349944325686,13884.792873687784,-124.03165397371696,2797.6610833566547,4384.623171232754,-21363.70511072341,0.0
-1368.0518753609897,10824.051303731667,15032.27919328812,13886.138584383802,-123.46002465151452,2801.3171292299085,4388.731756986084,-21367.0157972145,0.0
-1370.3383926497997,10815.06005085119,15022.144681763237,13876.397068017934,-130.23621390845594,2800.161961641291,4393.018976902603,-21386.844189328396,0.0
-1372.7678172691599,10811.011009818923,15019.667621367027,13874.825087381878,-132.83236374679203,2798.982976164248,4395.329312079838,-21409.625999607004,0.0
-1372.0175537837692,10812.642535176043,15021.656415050524,13879.7792081743,-126.12762815512592,2799.233063992712,4397.663465145497,-21422.082755253334,0.0
-1371.7436480668807,10814.357423142652,15023.383211961343,13882.589719008462,-123.86492875474126,2795.672289673159,4393.459607838467,-21435.682769544066,0.0
-1371.3982886847166,10811.677910694827,15021.477780887335,13880.86292209764,-125.07964106442144,2792.6355088989585,4390.220375012653,-21434.194151517495,0.0
-1369.8620348812976,10815.512590731269,15024.776558434212,13883.53052560125,-124.47228490958135,2791.027801430264,4382.5867417724085,-21421.046677106842,0.0
-1369.7786722718097,10816.763029873586,15024.836103155274,13881.553640861968,-130.9745684496341,2784.0015243448593,4381.765024621743,-21406.648763553865,0.0
-1370.1240316539736,10814.667055692176,15022.728220029654,13879.552938234261,-134.5591606576119,2778.416229509173,4377.406351039948,-21385.67711279556,0.0
-1370.6480251993257,10811.987543244353,15022.180408595876,13880.041204946976,-131.76055876766245,2779.440398711452,4369.1058169238,-21376.6024973056,0.0
-1369.4690397222832,10812.833078283446,15025.133826760588,13883.101803609601,-127.89015189858341,2783.1559893057683,4376.667996498771,-21382.616514132937,0.0
-1370.0763958771233,10816.108037941896,15028.742236856991,13886.376763268052,-123.7815661452534,2788.6102857551164,4382.146110836544,-21394.52545834549,0.0
-1373.1727213723866,10814.96477929749,15029.016142573879,13886.769758427066,-122.92412216194973,2787.979111711851,4379.025967452855,-21419.438969638148,0.0
-1373.458536033488,10811.237279758961,15024.776558434212,13883.399527214915,-125.67508827504898,2784.8113325513127,4369.2606331985635,-21438.73145926248,0.0
-1374.2683442399414,10810.20120161247,15022.549585866464,13882.160997016808,-124.8414621801704,2790.7777136018003,4374.595840205786,-21450.295044092865,0.0
-1372.9702693207735,10812.178086351754,15023.347485128706,13885.15014201416,-118.87508112968244,2797.2442703092156,4379.097421118131,-21434.30133201541,0.0
-1372.5891831059719,10812.761624618168,15021.013332063045,13881.93472707677,-122.73357905454891,2787.8600222697255,4374.024210883584,-21420.427412007786,0.0
-1371.8984643416438,10817.298932363152,15025.907908134404,13890.13998963922,-112.00362031904062,2796.5059157680375,4375.893915124954,-21402.028093199395,0.0
-1371.0291114141276,10818.204012123306,15031.314568806902,13897.237720389898,-105.77524249587653,2795.243567681507,4373.690760445632,-21376.75731358036,0.0
-1371.0410203583401,10815.202958181742,15029.242412513919,13885.507410340537,-126.90170952894171,2776.796613096266,4367.04556957503,-21364.145741659275,0.0
-1370.2907568729495,10812.85689617187,15021.835049213712,13875.992163914709,-130.91502372857133,2787.062123007485,4371.606695208436,-21372.279550556446,0.0
-1369.26658767067,10805.56862231379,15016.749930034954,13873.193562024759,-130.66493590010776,2790.63480627125,4377.561167314712,-21389.690426995196,0.0
-1373.0536319302612,10803.818007514545,15018.548180611047,13876.05170863577,-130.78402534223326,2782.882083588879,4382.289018167094,-21411.781518509477,0.0
-1377.0550371856782,10809.08176085649,15020.787062123007,13873.419831964797,-136.75040639272126,2775.9034422803243,4368.593732322661,-21440.100987846923,0.0
-1375.7331443780852,10812.511536789705,15023.18075990973,13875.051357321916,-137.1791283843731,2782.92971936573,4371.511423654736,-21447.293990151305,0.0
-1375.2329687211582,10813.36898077301,15022.894945248629,13876.9329705075,-135.66669246937911,2788.646012587754,4390.339464454779,-21445.388559077295,0.0
-1373.4109002566377,10810.689468325187,15020.429793796631,13875.503897201992,-134.85688426292566,2788.6102857551164,4384.658898065391,-21433.21761809207,0.0
-1371.3387439636538,10807.569324941496,15016.714203202315,13873.01492786157,-130.77211639802073,2797.5896296913797,4386.885870633138,-21413.258227591832,0.0
-1369.373768168583,10808.117136375275,15018.679178997387,13878.457315366706,-121.10205369742944,2803.389285522892,4385.39725260657,-21388.499532573936,0.0
-1368.3853257989413,10810.20120161247,15021.69214188316,13877.671325048677,-131.21274733388512,2788.9556451372805,4383.515639420987,-21372.755908324947,0.0
-1370.4455731477126,10808.700674641688,15019.0721741564,13871.133314675988,-142.26424756313227,2782.3342721551016,4380.859944861588,-21381.08026032952,0.0
-1371.5769228479048,10807.783685937322,15016.821383700228,13869.728059258907,-143.91959080867687,2776.1178032761504,4372.595137578078,-21397.347878123866,0.0
-1372.2319147795952,10810.891920376798,15021.596870329462,13877.052059949625,-135.24987942193985,2783.822890181671,4381.348211574303,-21416.402188863947,0.0
-1373.9587116904152,10810.868102488374,15021.45396299891,13875.992163914709,-136.42886489898237,2781.0481061801465,4379.347508946595,-21440.446347229084,0.0
-1372.7320904365224,10809.248486075467,15018.798268439512,13874.015279175424,-136.8814047790593,2781.7269160002616,4377.537349426287,-21448.139525190392,0.0
-1373.6609880851013,10808.724492530115,15018.024187065696,13873.658010849047,-136.16686812630627,2784.299247950173,4377.69216570105,-21438.4694624898,0.0
-1372.2795505564454,10808.56967625535,15019.346079873289,13874.59881744184,-134.49961593654913,2783.5847112974197,4378.073251915852,-21425.965071066625,0.0
-1370.9933845814899,10810.47510732936,15022.001774432687,13877.147331503325,-131.30801888758552,2786.919215676934,4380.02631876671,-21411.16225341042,0.0
-1370.9219309162145,10813.392798661434,15024.062021781458,13879.398121959497,-129.11677315247616,2789.836907009009,4380.335951316236,-21393.858557469586,0.0
-1369.611947052834,10813.821520653086,15025.169553593227,13879.60057401111,-130.03376185684257,2792.9332325042724,4387.028777963689,-21373.32753764715,0.0
-1368.7664120137429,10810.963374042074,15022.906854192841,13876.694791623248,-133.1539052405309,2792.1591511304564,4387.2669568479405,-21376.28095581186,0.0
-1368.0280574725648,10814.524148361628,15025.669729250154,13878.040502319267,-132.4989133088406,2788.7651020298795,4383.730000416813,-21389.82142538153,0.0
-1367.754151755676,10819.978444810975,15030.278490660408,13883.363800382276,-127.44952096271905,2793.5286797148997,4391.101636884382,-21404.838604033557,0.0
-1367.2897029313865,10819.430633377198,15030.719121596274,13884.471332194043,-124.19837919269266,2798.7924330568476,4389.851197742064,-21421.165766548966,0.0
-1368.468688408429,10818.83518616657,15030.623850042575,13885.126324125735,-123.82920192210359,2796.708367819651,4389.255750531436,-21436.766483467407,0.0
-1367.8136964767386,10819.490178098262,15030.147492274073,13882.875533669563,-128.99768371035066,2792.242513739944,4388.969935870336,-21436.706938746345,0.0
-1365.76535807218,10820.157078974162,15028.623147414864,13880.207930165952,-130.24812285266847,2794.314670032928,4388.1363097754565,-21418.33143782638,0.0
-1366.1464442869817,10822.14587265766,15029.039960462305,13881.577458750395,-126.98507213842957,2799.113974550586,4392.018625588748,-21397.75278222709,0.0
-1366.3846231712328,10819.549722819324,15026.419992735544,13879.791117118511,-129.23586259460168,2797.160907699728,4389.351022085138,-21376.74540463615,0.0
-1365.6819954626922,10818.454099951769,15027.860974985262,13882.053816518895,-128.27123811338507,2794.8267546340676,4392.125806086661,-21361.216141382985,0.0
-1365.1460929731275,10818.442191007556,15031.540838746942,13888.639462668436,-119.45861939609743,2797.434813416616,4397.163289488571,-21362.88339357274,0.0
-1365.8368117374553,10820.83588879428,15031.659928189067,13889.877992866543,-117.88663876004073,2794.802936745643,4385.980790872985,-21388.094628470713,0.0
-1365.2175466384026,10819.44254232141,15030.207036995134,13887.734382908282,-119.67298039192336,2792.123424297819,4377.8350730316,-21414.496757789937,0.0
-1363.800382277109,10820.550074133176,15033.7797202589,13890.794981570907,-117.13637527465002,2792.1472421862436,4382.015112450205,-21428.739855068146,0.0
-1363.2168440106943,10821.359882339631,15034.506165855864,13892.56941425858,-115.18330842379169,2795.422201844696,4385.087620057044,-21436.957026574808,0.0
-1363.1096635127813,10821.788604331283,15032.553099005008,13891.819150773186,-114.70695065528965,2799.7808754264893,4385.694976211884,-21436.433033029454,0.0
-1361.0375072197974,10822.70559303565,15033.053274661936,13892.24787276484,-115.75493774599413,2800.5430478560925,4387.243138959516,-21421.237220214243,0.0
-1360.9541446103096,10818.525553617044,15024.193020167797,13881.232099368232,-124.85337112438296,2793.9335838181264,4382.1699287249685,-21401.158740271883,0.0
-1365.0150945867895,10814.226424756313,15018.476726945772,13873.074472582633,-130.54584645798226,2792.9689593369103,4380.657492809974,-21383.60495650258,0.0
-1365.527179187929,10812.880714060295,15018.500544834198,13874.670271107114,-127.40188518586885,2798.7567062242097,4384.46835495799,-21377.531394954178,0.0
-1364.6935530930505,10816.989299813624,15021.096694672535,13875.873074472584,-131.42710832971102,2790.158448502748,4381.133850578477,-21379.698822800863,0.0
-1365.527179187929,10813.833429597298,15019.77480186494,13873.693737681686,-135.45233147355322,2785.120965100839,4378.90687801073,-21395.77589748781,0.0
-1366.6585288881215,10812.892623004507,15020.644154792457,13873.038745749995,-134.61870537867463,2790.182266391173,4381.634026235404,-21416.60464091556,0.0
-1366.7657093860344,10814.226424756313,15022.513859033827,13872.788657921532,-134.98788264926372,2793.9097659297013,4393.483425726892,-21431.502730125463,0.0
-1365.634359685842,10814.643237803753,15025.824545524916,13876.397068017934,-131.52237988341142,2795.243567681507,4392.697435408863,-21443.685580054902,0.0
-1365.2056376941903,10815.071959795403,15028.099153869514,13878.421588534069,-130.60539117904503,2792.516419456833,4388.529304934471,-21443.018679178997,0.0
-1361.918769091526,10819.775992759362,15034.577619521142,13885.769407113212,-121.87613507124526,2800.2453242507786,4392.780798018352,-21423.702371666237,0.0
-1362.21649269684,10819.76408381515,15034.041717031576,13886.50776165439,-122.03095134600842,2798.9234314431856,4393.959783495394,-21405.87468218005,0.0
-1361.7996796494008,10819.680721205661,15031.86238024068,13886.41249010069,-120.11361132778772,2802.7462025354143,4397.06801793487,-21385.2364818597,0.0
-1360.8588730566091,10821.228883953292,15033.148546215634,13887.960652848322,-116.52901911980993,2805.663893867489,4391.88762720241,-21369.326132391732,0.0
-1358.7509899309875,10820.97879612483,15033.934536533663,13886.579215319665,-116.96965005567431,2804.9136303820987,4381.169577411114,-21375.137697167458,0.0
-1359.7156144122043,10813.857247485725,15031.040663090014,13884.042610202392,-123.9721092526542,2798.9115224989728,4389.45820258305,-21394.12055424226,0.0
-1361.204232438773,10812.594899399193,15029.968858110884,13885.24541356786,-124.31746863481818,2796.172465330086,4393.912147718544,-21414.294305738324,0.0
-1361.9306780357388,10821.609970168094,15037.149951471052,13894.022305452509,-110.37209496192115,2810.117839002983,4394.031237160669,-21434.241787294348,0.0
-1364.5863725951376,10820.04989847625,15030.719121596274,13883.018441000111,-122.19767656498412,2797.2561792534284,4390.565734394818,-21449.580507440114,0.0
-1364.1576506034858,10820.299986304713,15029.873586557183,13877.44505510864,-133.3682662363568,2781.2267403433348,4379.561869942419,-21444.495388261355,0.0
-1362.454671581091,10822.538867816675,15032.33873800918,13881.684639248308,-126.53253225835263,2786.6453099600453,4372.416503414889,-21423.24983178616,0.0
-1362.6571236327043,10824.146575285367,15034.827707349605,13882.02999863047,-128.7475958818871,2788.39592475929,4377.918435641088,-21405.243508136788,0.0
-1363.2168440106943,10820.538165188964,15032.946094164023,13879.02894468891,-134.91642898398842,2783.787163349033,4377.382533151523,-21384.462400485885,0.0
-1361.1089608850727,10819.644994373022,15033.672539760988,13884.507059026682,-126.43726070465223,2790.9325298765634,4380.12159032041,-21372.148552170107,0.0
-1362.4427626368783,10816.536759933548,15028.980415741242,13882.86362472535,-125.66317933083643,2790.5990794386125,4379.740504105608,-21381.151713994794,0.0
-1361.6805902072751,10815.715042782882,15024.871829987913,13878.528769031982,-128.8428674355875,2788.431651591928,4380.276406595173,-21399.396216528425,0.0
-1361.5138649882995,10818.728005668658,15026.336630126056,13879.195669907884,-127.92587873122106,2789.539183403695,4380.693219642613,-21424.61936037061,0.0
-1364.0028343287227,10815.393501289143,15024.943283653187,13876.70670056746,-128.1640576154721,2793.0880487790355,4386.24278764566,-21443.197313342185,0.0
-1369.3142234475201,10810.975282986286,15022.585312699102,13872.371844874093,-133.999440279622,2791.5517949756163,4382.92019221036,-21454.37981195777,0.0
-1370.0287601002733,10812.880714060295,15024.312109609922,13871.28813095075,-138.46529435932857,2788.6579215319666,4382.277109222882,-21448.246705688307,0.0
-1367.0991598239857,10815.298229735441,15026.384265902905,13873.300742522671,-136.07159657260584,2791.444614477703,4384.289720794803,-21436.206763089416,0.0
-1365.8844475143055,10815.988948499771,15024.740831601574,13869.335064099892,-139.26319362156949,2788.848464639367,4388.624576488171,-21421.392036489004,0.0
-1365.7058133511175,10815.631680173394,15027.682340822073,13875.098993098767,-133.16581418474345,2792.8975056716345,4396.472570724242,-21393.072567151557,0.0
-1365.5629060205667,10814.869507743791,15030.766757373125,13882.196723849447,-123.53147831678982,2801.3885828951834,4404.296747071888,-21372.791635157584,0.0
-1365.7177222953298,10816.822574594647,15031.457476137452,13879.814935006938,-128.7475958818871,2793.2547739980114,4393.840694053269,-21378.627017821735,0.0
-1366.5037126133584,10817.418021805277,15033.029456773509,13882.291995403148,-124.63901012855705,2794.052673260252,4386.552420195188,-21395.72826171096,0.0
-1368.7187762368926,10815.881768001858,15030.349944325686,13881.589367694607,-123.48384253993962,2793.790676487576,4380.693219642613,-21417.62881011784,0.0
-1370.6480251993257,10810.510834161996,15026.36044801448,13877.540326662338,-128.6046885513365,2786.8239441232336,4368.427007103685,-21438.23128360555,0.0
-1371.303017131016,10806.997695619295,15023.823842897207,13875.944528137858,-129.55740408834055,2788.5031052572035,4378.120887692701,-21451.24775962987,0.0
-1370.2312121518867,10813.51188810356,15026.908259448259,13878.028593375055,-129.24777153881422,2787.5384807759865,4374.905472755312,-21445.65055584997,0.0
-1367.9566038072894,10812.463901012856,15025.824545524916,13875.48007931357,-132.7370921930916,2784.0372511774967,4375.751007794403,-21428.215861522796,0.0
-1367.9327859188643,10809.046034023853,15021.918411823199,13870.537867465358,-135.84532663256738,2783.930070679584,4374.7982922574,-21414.806390339465,0.0
-1368.6830494042551,10808.081409542636,15020.608427959818,13869.04924943879,-137.0243121096099,2783.501348687932,4377.918435641088,-21401.980457422545,0.0
-1368.3853257989413,10806.068797970716,15019.000720491125,13870.478322744297,-135.27369731036495,2782.3223632108898,4378.0970698042765,-21386.582192555717,0.0
-1369.4690397222832,10805.3899881506,15017.750281348806,13870.58550324221,-133.89225978170904,2784.644607332337,4373.786031999333,-21387.594452813784,0.0
-1369.159407172757,10809.248486075467,15021.596870329462,13874.78936054924,-126.93743636157936,2791.6827933619543,4373.0000416813045,-21407.958747417248,0.0
-1369.6953096623217,10802.162664268999,15017.893188679358,13873.098290471058,-129.1524999851138,2788.193472707677,4375.620009408066,-21430.52619670003,0.0
-1371.100565079403,10803.567919686078,15020.560792182969,13875.027539433491,-129.58122197676565,2789.860724897434,4382.55101493977,-21451.271577518295,0.0
-1372.577274161759,10801.340947118333,15014.356232248228,13872.13366598984,-126.09190132248824,2793.635860212813,4375.953459846018,-21459.226752252278,0.0
-1371.9580090627064,10800.86458934983,15008.068309704004,13863.535408268379,-132.2369165361645,2791.1707087608147,4375.977277734442,-21455.737431597998,0.0
-1372.1485521701072,10804.651633609423,15010.938365259228,13863.511590379956,-136.45268278740747,2787.312210835948,4369.284451086989,-21442.744773462106,0.0
-1373.720532806164,10800.471594190816,15008.52084958408,13858.033476042181,-148.2187196694077,2772.0806711880955,4364.020697745041,-21424.655087203242,0.0
-1372.25573266802,10799.233063992713,15006.019971299444,13853.841527679362,-153.94692183564464,2769.829880731924,4370.177621902931,-21407.399027039257,0.0
-1369.1474982285447,10805.878254863313,15012.903341054298,13858.628923252809,-149.23097992747455,2775.2841771812723,4370.010896683954,-21390.917048249088,0.0
-1369.2784966148824,10806.426066297092,15017.095289417117,13863.594952989442,-144.0267713065898,2779.440398711452,4372.952405904454,-21390.893230360663,0.0
-1370.5646625898382,10803.460739188167,15014.415776969292,13860.689170601581,-150.8863231730191,2773.68837865679,4369.915625130254,-21415.06838711214,0.0
-1368.468688408429,10809.629572290269,15020.584610071395,13866.822276871044,-141.0495352534521,2786.5143115737073,4381.336302630089,-21429.037578673462,0.0
-1361.3590487135361,10818.46600889598,15029.218594625494,13876.349432241084,-130.9269326727839,2796.827457261776,4390.875366944344,-21441.887329478806,0.0
-1354.761493619783,10821.514698614395,15035.387427727594,13885.209686735221,-121.34023258168047,2804.4849083904464,4400.021436099582,-21446.960539713353,0.0
-1350.9029956949166,10822.276871043998,15037.733489737468,13887.889199183046,-115.95738979760749,2810.3202910545965,4404.07047713185,-21437.874015279176,0.0
-1354.416134237619,10824.599115165443,15041.711077104459,13894.331938002037,-107.51394835090895,2816.560577821973,4403.70129986126,-21424.440726207416,0.0
-1365.0508214194272,10813.297527107734,15029.385319844469,13880.458017994415,-123.74583931261574,2796.172465330086,4382.979736931423,-21416.71182141347,0.0
-1374.411251570492,10796.446371046974,15008.723301635693,13855.091966821681,-151.55322404892192,2769.0081635812576,4359.16184850632,-21417.426358066226,0.0
-1379.1748292555123,10790.944438820778,15002.340107537766,13845.481448842153,-164.74833423642826,2754.372071144033,4349.68232891313,-21408.840009288975,0.0
-1378.519837323822,10794.04076431604,15006.23433229527,13848.494411727926,-161.04465258632496,2761.5650734484134,4357.089692213337,-21408.851918233187,0.0
-1375.8045980433606,10800.209597418141,15012.58179956056,13854.877605825855,-155.30454147587545,2772.497484235535,4367.84346883727,-21421.60639748483,0.0
-1376.1618663697368,10801.936394328959,15017.404921966643,13859.879362395126,-151.56513299313448,2774.7959104685574,4364.675689676732,-21432.02672367081,0.0
-1378.6746535985853,10801.019405624593,15015.082677845196,13859.486367236112,-151.67231349104745,2772.61657367766,4362.817894379574,-21456.964052851894,0.0
-1384.5576720395852,10790.706259936524,14998.791242162426,13842.468485956379,-164.80787895749103,2764.625672111039,4363.294252148076,-21489.415925831094,0.0
-1383.9860427173828,10786.990669342209,14997.719437183296,13842.778118505903,-164.4744285195396,2766.5430121292598,4378.144705581127,-21481.020120161247,0.0
-1381.806705926486,10790.134630614322,15002.935554748394,13849.29231099017,-157.00752049827022,2769.5559750150346,4377.918435641088,-21456.26142514335,0.0
-1385.4865696881643,10784.061069065923,14996.373726487278,13842.956752669092,-163.0215373256084,2757.516032416146,4358.268677690379,-21446.150731506896,0.0
-1394.0252826885633,10773.545471326239,14987.001387392,13832.500699650473,-173.62049767477865,2748.1794201535063,4339.369183225061,-21438.73145926248,0.0
-1395.6091722688325,10770.580144217314,14984.52432699579,13830.607177520676,-174.63275793284544,2748.7034136988586,4337.547114760541,-21424.381181486355,0.0
-1391.7625832881786,10776.760886263628,14989.442720955574,13833.227145247438,-171.75079343340818,2757.754211300397,4350.682680226984,-21420.844225055225,0.0
-1391.464859682865,10777.546876581657,14989.061634740772,13829.45200993206,-177.97917125657224,2752.954906782739,4349.372696363604,-21442.45895880101,0.0
-1398.53877254512,10768.114992765317,14978.64130855479,13816.971436397307,-193.05589462966162,2738.771354225591,4337.725748923729,-21488.08212407929,0.0
-1407.0536676570937,10757.456487695083,14969.888234558564,13812.815214867125,-194.9732346478823,2735.5559392882024,4335.248688527518,-21520.95081010593,0.0
-1411.3289786293997,10750.287303279129,14964.755479602956,13810.373881303554,-196.25940062283777,2730.87572421267,4326.829064969245,-21532.407214438404,0.0
-1409.1258239500776,10756.46804532544,14967.851805098218,13811.731500943784,-196.16412906913737,2725.814422922336,4320.9103196956075,-21526.643285439528,0.0
-1403.838252719705,10759.68346026283,14972.412930731627,13818.3886007586,-187.4586908497627,2731.661714530698,4330.7232897267495,-21503.337481615567,0.0
-1404.6718788145838,10757.885209686736,14972.103298182099,13819.09122846714,-184.67199790402583,2734.924765244937,4335.451140579133,-21478.805056537713,0.0
-1413.0438665960069,10753.943349152381,14966.553730179052,13811.85059038591,-193.53225239816362,2723.230182028212,4310.216087792737,-21469.742349991964,0.0
-1418.9745208138572,10750.561208996016,14962.171238708832,13806.408202880773,-198.6292805211354,2721.8963802764065,4303.118357042056,-21462.632710297068,0.0
-1416.6760945808348,10751.680649751997,14962.76668591946,13806.920287481913,-198.56973580007264,2725.1594309906454,4311.025895999191,-21460.655825557784,0.0
-1414.0680357982862,10753.943349152381,14964.553027551341,13807.075103756675,-199.12945617806253,2727.6722182194935,4318.099808861445,-21475.36337166028,0.0
-1419.4389696381468,10750.775569991842,14962.421326537296,13806.253386606011,-200.47516687408077,2724.778344775844,4313.931678387053,-21495.549032100556,0.0
-1420.6298640594018,10750.192031725426,14963.362133130087,13808.039728237893,-199.6177228907771,2724.909343162182,4318.611893462585,-21509.970763541958,0.0
-1421.2610381026668,10749.441768240036,14963.957580340715,13809.98088614454,-196.64048683763943,2724.647346389506,4316.9803681054655,-21524.78549014237,0.0
-1425.5958937960354,10740.593422690112,14954.668603854925,13799.536742070131,-204.75047784638653,2718.752419004293,4309.501551139983,-21524.035226656983,0.0
-1426.6796077193776,10737.056466258982,14951.6080051923,13796.249873467466,-208.0492553932631,2714.6557421951757,4301.8441000113135,-21513.72208096891,0.0
-1425.0123555296204,10741.534229282903,14957.205208972198,13802.680703342245,-202.8212288839533,2718.966780000119,4306.214682537319,-21492.976700150648,0.0
-1420.939496608928,10739.307256715156,14952.096271905013,13797.405041056085,-205.95328121185418,2720.5983053572386,4308.370201439791,-21464.69295764584,0.0
-1415.6995611554057,10744.475738503403,14956.061950327794,13800.025008782846,-201.10634091734596,2726.6242311287892,4320.445870871318,-21449.270874890586,0.0
-1414.2466699614747,10746.023901251034,14957.669657796487,13802.65688545382,-199.93926438451598,2726.993408399378,4323.72083052977,-21458.131129384725,0.0
-1415.6757432669806,10743.24911724951,14955.63322833614,13802.109074020042,-201.344519801597,2719.9790402581857,4314.491398765042,-21475.601550544536,0.0
-1417.4144491220131,10741.248414621801,14955.133052679214,13802.359161848506,-201.63033446269822,2715.810909783793,4301.713101624975,-21500.550788669832,0.0
-1417.4025401778003,10738.985715221417,14955.871407220391,13803.669145711887,-199.86781071924068,2719.097778386457,4299.926759993093,-21515.329788437608,0.0
-1414.472939901513,10744.737735276078,14962.778594863672,13811.136053733157,-191.51964082624255,2726.838592124615,4317.337636431842,-21522.475154965137,0.0
-1414.9731155584402,10746.309715912135,14962.016422434068,13808.789991723283,-194.3896963814673,2721.2056615120787,4306.30995409102,-21527.560274143896,0.0
-1416.854728744023,10747.893605492403,14961.968786657219,13807.539552580965,-196.19985590177504,2718.2046075705157,4303.761440029534,-21521.31998737652,0.0
-1416.7713661345354,10749.691856068499,14964.457755997642,13809.99279508875,-192.97253202017373,2724.182897565216,4310.370904067499,-21493.64360102655,0.0
-1412.7461429906932,10752.240370129985,14968.447252308846,13814.482467056881,-186.5893379222465,2731.6259876980607,4313.943587331265,-21464.085601491,0.0
-1412.1983315569157,10749.763309733777,14966.601365955901,13814.399104447395,-182.45693428049134,2737.8067297443745,4317.623451092943,-21453.15319070388,0.0
-1413.3534991455333,10745.309364598283,14960.5278044075,13808.849536444346,-187.68496078980118,2733.995867596358,4315.932381014761,-21463.72833316462,0.0
-1412.3174209990414,10745.96435652997,14958.872461161956,13805.110127961605,-197.80756337046938,2726.183600192925,4317.099457547592,-21482.34201296884,0.0
-1411.98397056109,10750.95420415503,14961.099433729702,13804.99103851948,-199.1413651222751,2728.100940211146,4323.173019095992,-21499.58616418861,0.0
-1411.9363347842398,10751.549651365658,14962.49278020257,13803.454784716061,-199.355726118101,2727.314949893117,4317.909265754045,-21514.51998023115,0.0
-1412.1506957800655,10751.299563537195,14964.886477989294,13806.76547120715,-197.18829827141673,2726.790956347765,4317.337636431842,-21523.404052613714,0.0
-1412.8414145443935,10747.738789217643,14962.12360293198,13805.395942622707,-201.9637849006496,2719.419319880196,4321.3985864083215,-21517.08040323685,0.0
-1414.842117172102,10748.810594196771,14962.20696554147,13805.288762124792,-201.13015880577106,2718.54996695268,4316.2539225085,-21504.70701020001,0.0
-1412.6508714369927,10750.847023657117,14965.053203208268,13810.278609749852,-192.85344257804823,2728.2676654301213,4316.373011950625,-21479.10278014303,0.0
-1413.6035869739967,10753.014451503801,14968.399616531995,13815.137458988573,-188.26849905621617,2731.1496299295586,4320.136238321792,-21454.105906240882,0.0
-1410.626350920859,10756.372773771742,14972.103298182099,13818.829231694463,-185.21980933780316,2729.2680167439757,4317.837812088769,-21442.161235195694,0.0
-1409.3640028343286,10757.849482854097,14974.342179694058,13823.080724778345,-178.0863517544852,2736.24665805253,4313.229050678512,-21440.124805735348,0.0
-1410.602533032434,10755.169970406272,14970.078777665965,13818.150421874347,-182.2306643404529,2734.3293180343094,4313.205232790087,-21459.917471016604,0.0
-1410.9359834703853,10755.6701460632,14969.316605236363,13815.95917613924,-184.37427429871204,2735.0795815197002,4322.899113379103,-21484.11644565651,0.0
-1409.7093622164925,10756.59904371178,14972.615382783239,13818.352873925962,-184.82681417878896,2729.506195628226,4316.837460774916,-21500.61033339089,0.0
-1408.9710076753145,10758.409203232088,14976.30715548913,13820.317849721032,-184.87444995563916,2731.9951649686495,4322.958658100167,-21510.709118083138,0.0
-1408.0421100267356,10761.434075062074,14974.425542303547,13816.364080242467,-189.55466503117165,2732.840700007741,4331.652187375328,-21506.01699406339,0.0
-1406.553492000167,10760.933899405149,14972.972651109616,13814.291923949482,-190.49547162396317,2733.602872437344,4330.187387237184,-21493.893688855016,0.0
-1408.899554010039,10757.980481240435,14971.055311091395,13812.267403433349,-190.88846678297736,2732.495340625577,4329.044128592779,-21476.292269308866,0.0
-1407.708659588784,10762.803603646518,14975.533074115314,13816.209263967703,-185.37462561256632,2740.426697471136,4336.403856116136,-21452.64110610274,0.0
-1404.8028772009216,10768.341262705355,14979.284391542267,13818.7696869734,-184.94590362091446,2741.8914976092797,4335.8203178497215,-21438.016922609724,0.0
-1403.7191632775796,10768.281717984291,14981.642362496352,13821.770740914964,-183.26674248694482,2742.4988537641198,4331.509280044777,-21434.920597114462,0.0
-1401.194467104519,10766.412013742922,14980.630102238285,13822.151827129765,-182.68320422052983,2740.557695857474,4326.70997552712,-21447.520260091344,0.0
-1399.7058490779498,10763.041782530769,14978.41503861475,13822.604367009842,-181.24222197081116,2736.496745880994,4329.603848970769,-21465.443221131227,0.0
-1400.87292561078,10768.269809040079,14983.845517175674,13827.891938240215,-177.58617609755805,2741.3675040639273,4341.0602533032425,-21483.425726892183,0.0
-1402.5759046331746,10772.497484235535,14987.394382551014,13831.79807194193,-171.9770633734466,2744.0470165117513,4330.556564507773,-21497.359191620864,0.0
-1403.552438058604,10773.652651824152,14987.287202053101,13831.917161384057,-169.45236720038585,2744.2732864517898,4325.304720110039,-21492.547978158997,0.0
-1401.9923663667598,10767.698179717878,14984.405237553663,13829.845005091074,-168.65446793814493,2743.8207465717123,4320.743594476631,-21475.160919608672,0.0
-1401.4683728214075,10771.199409316367,14984.226603390476,13824.783703800738,-176.06183123835157,2738.6284468950403,4324.5306387362225,-21457.69049844886,0.0
-1406.0890431758774,10771.985399634395,14982.630804865994,13819.65094884513,-186.5417021453963,2733.5314187720687,4323.458833757093,-21439.910444739522,0.0
-1406.220041562215,10765.233028265879,14980.296651800334,13820.282122888395,-185.07690200725253,2731.244901483259,4320.160056210216,-21428.41831357441,0.0
-1403.707254333367,10767.543363443114,14981.046915285726,13822.818728005668,-182.14730173096504,2732.4000690718767,4316.230104620075,-21441.66105953877,0.0
-1400.3012962885775,10775.79626178241,14988.20419075747,13830.20227341745,-174.65657582127056,2738.53317534134,4319.814696828053,-21454.498901399893,0.0
-1400.4918393959783,10777.570694470081,14990.836067428441,13832.857967976848,-172.58441952828673,2739.4025282688563,4325.161812779488,-21472.267046165023,0.0
-1402.08763792046,10780.333569527393,14993.944301867918,13835.501753592034,-168.45201588653157,2743.5230229663985,4327.317331681959,-21496.13257036697,0.0
-1401.3373744350695,10784.156340619622,14998.326793338136,13840.110515002292,-162.62854216659423,2753.359810885966,4337.142210657314,-21504.445013427332,0.0
-1399.8844832411382,10783.799072293246,14997.36216885692,13838.621896975723,-165.01033100910436,2751.633013975146,4326.0788014838545,-21496.430293972287,0.0
-1400.4322946749155,10783.799072293246,14996.445180152554,13835.466026759397,-169.71436397306195,2745.2379109330063,4323.411197980243,-21486.462507666383,0.0
-1401.1349223834561,10784.644607332337,14997.481258299045,13836.811737455415,-167.27303040948902,2749.608493459012,4331.652187375328,-21471.302421683802,0.0
-1397.4431496775653,10786.788217290596,15000.827671622772,13841.194228925635,-163.1882625445841,2758.8021983911017,4337.904383086918,-21447.841801585077,0.0
-1398.5983172661827,10782.119911159276,14995.909277662988,13836.823646399627,-166.0940449324465,2757.1111283129194,4344.87111545126,-21439.195908086767,0.0
-1400.206024734877,10778.96404094295,14991.99123501706,13835.442208870973,-167.65411662429068,2753.1216320017147,4340.44098820419,-21441.66105953877,0.0
-1398.6102262103952,10774.045646983166,14989.418903067148,13835.787568253136,-166.57040270094853,2752.8358173406136,4337.832929421642,-21452.105203613173,0.0
-1399.7653937990128,10773.402563995689,14989.168815238685,13834.751490106644,-166.0940449324465,2752.0498270225853,4338.118744082743,-21470.254434593102,0.0
-1402.0280931993975,10773.104840390375,14987.001387392,13832.131522379883,-169.30945986983525,2748.024603878743,4335.117690141181,-21485.307340077765,0.0
-1406.172405785365,10768.13881065374,14983.595429347211,13830.380907580638,-171.32207144175632,2747.26243144914,4331.735549984816,-21499.824343072865,0.0
-1406.065225287452,10763.756319183523,14981.773360882691,13831.476530448193,-166.98721574838783,2754.0267117618687,4335.272506415943,-21499.014534866412,0.0
-1401.0039239971181,10769.48452134976,14986.989478447787,13835.442208870973,-161.9020965696286,2756.872949428668,4339.0238238428965,-21478.769329705076,0.0
-1397.955234278705,10773.212020888288,14989.061634740772,13834.060771342316,-165.9035018250457,2747.8578786597673,4335.927498347633,-21457.97631310996,0.0
-1396.573796750049,10774.248099034781,14988.406642809081,13831.452712559767,-169.3928224793231,2748.0960575440185,4335.010509643267,-21438.922002369876,0.0
-1396.2165284236726,10776.379800048826,14989.359358346086,13830.976354791266,-169.4404582561733,2748.2508738187817,4335.141508029606,-21423.642826945175,0.0
-1396.8715203553627,10778.26141323441,14990.002441333563,13829.92836770056,-171.96515442923408,2747.31006722599,4335.105781196968,-21429.859295824128,0.0
-1396.0140763720592,10778.642499449212,14990.097712887264,13830.023639254261,-171.50070560494459,2750.704116326567,4336.594399223537,-21449.6638700496,0.0
-1396.3475268100105,10777.796964410121,14989.359358346086,13830.726266962802,-168.7140126592077,2753.681352379705,4335.284415360156,-21462.21589724963,0.0
-1398.3720473261442,10777.665966023782,14989.323631513447,13831.393167838705,-166.8443084178372,2755.7773265611136,4333.736252612524,-21475.065648054973,0.0
-1399.6701222453123,10773.747923377852,14983.845517175674,13822.973544280432,-180.01560071691844,2742.486944819907,4326.364616144955,-21502.444310799623,0.0
-1398.1100505534682,10775.296086125483,14986.775117451962,13826.391411269435,-178.31262169452367,2742.141585437743,4326.3050714238925,-21496.13257036697,0.0
-1398.7769514293711,10776.737068375203,14990.014350277776,13832.453063873621,-171.9294275965964,2746.917072066976,4333.319439565085,-21481.00821121703,0.0
-1400.1464800138144,10775.689081284498,14988.34709808802,13830.845356404927,-173.25132040418956,2744.106561232814,4331.2115564394635,-21460.119923068218,0.0
-1399.0508571462597,10775.7843528382,14988.740093247032,13831.97670610512,-169.48809403302351,2750.4659374423163,4339.059550675534,-21440.97034077444,0.0
-1396.919156132213,10775.83198861505,14989.585628286124,13831.857616662994,-168.201928058068,2752.7643636753382,4342.203511947649,-21429.775933214638,0.0
-1395.4781738824945,10776.11780327615,14989.002090019709,13829.392465210996,-172.10806175978468,2750.489755330741,4342.894230711976,-21432.00290578239,0.0
-1397.2764244585896,10778.22568640177,14991.01470159163,13830.607177520676,-171.52452349336968,2750.1086691159394,4334.450789265277,-21450.759492917154,0.0
-1399.6582133010997,10776.475071602526,14989.395085178723,13828.165843957104,-173.95394811273005,2749.108317802085,4333.8553420546505,-21475.708731042447,0.0
-1400.6466556707414,10773.938466485253,14986.34639546031,13824.771794856528,-176.41909956472807,2748.1794201535063,4336.487218725623,-21494.179503516116,0.0
-1399.9321190179885,10772.342667960773,14983.595429347211,13821.353927867523,-179.5154250599913,2746.09535491631,4335.48686741177,-21499.276531639087,0.0
-1398.3720473261442,10772.688027342936,14982.773712196544,13820.317849721032,-179.72978605581721,2749.3107698536987,4339.393001113486,-21492.917155429586,0.0
-1394.7398193413162,10777.785055465907,14987.692106156328,13826.74867959581,-174.1921269969811,2758.0400259614985,4351.063766441786,-21475.827820484574,0.0
-1388.987799286654,10782.846356756241,14994.885108460709,13834.799125883495,-165.974955490321,2765.4473892617048,4358.947487510495,-21451.545483235182,0.0
-1382.7713304077026,10789.586819180546,15001.232575725999,13843.802287708182,-157.56724087626012,2770.6635068268024,4362.686895993235,-21426.2270678393,0.0
-1382.1044295317997,10790.718168880738,15002.816465306269,13846.005442387504,-153.80401450509405,2772.509393179748,4364.461328680905,-21406.100952120087,0.0
-1391.4291328502272,10784.072978010134,15000.39894963112,13843.861832429246,-157.1623367730334,2765.685568145956,4354.755539147677,-21417.092907628274,0.0
-1398.5030457124824,10775.498538177098,14992.300867566584,13835.10875843302,-166.03450021138374,2755.0032451872976,4338.845189679709,-21448.27052357673,0.0
-1399.7296669663751,10770.675415771015,14985.36986203488,13828.118208180253,-172.25096909033527,2750.2873032791276,4332.0451825343425,-21467.68210264319,0.0
-1396.8238845785127,10775.260359292848,14988.978272131284,13830.76199379544,-169.35709564668545,2755.6820550074135,4337.368480597353,-21482.258650359352,0.0
-1393.810921692737,10781.750733888688,14993.646578262604,13833.4772330759,-166.33222381669754,2759.9335480912937,4348.550979212938,-21492.262163497893,0.0
-1392.4056662756564,10782.75108520254,14994.65883852067,13835.585116201522,-163.83134553206187,2761.231623010462,4354.86271964559,-21482.568282908876,0.0
-1391.059955579638,10784.608880499698,14996.183183379877,13839.693701954851,-162.09263967702944,2760.588540022984,4353.421737395872,-21467.110473320987,0.0
-1391.5601312365652,10784.573153667063,14997.147807861093,13842.135035518426,-160.15148177038364,2759.2190114385407,4346.08582776094,-21448.091889413543,0.0
-1391.3576791849518,10783.048808807855,14998.946058437188,13846.017351331717,-153.02993313127826,2761.100624624124,4337.487570039479,-21428.489767239684,0.0
-1388.4995325739396,10785.251963487177,15002.387743314615,13847.517878302499,-151.39840777415878,2760.2669985292455,4339.154822229235,-21412.376965720105,0.0
-1386.629828332569,10793.028504057973,15009.83083344746,13854.008252898338,-147.2779130766162,2763.2085077497454,4340.20280931994,-21412.043515282152,0.0
-1385.6890217397777,10794.481395251903,15011.22417992033,13856.390041740848,-144.47931118666676,2765.685568145956,4341.679518402296,-21423.607100112542,0.0
-1385.0221208638748,10791.539886031404,15007.973038150303,13852.531543815983,-147.9686318409441,2765.685568145956,4339.488272667187,-21441.19661071448,0.0
-1381.1040782179455,10797.756354910354,15015.344674617872,13862.177788628149,-135.40469569670302,2773.6169249915147,4335.558321077045,-21455.11816649895,0.0
-1379.3772813071255,10804.199093729347,15022.132772819024,13870.121054417921,-125.90135821508744,2778.9997677755878,4352.873925962093,-21468.075097802204,0.0
-1381.3065302695588,10796.184374274299,15013.439243543864,13859.879362395126,-138.79874479728,2772.7237541755735,4353.8623683317355,-21465.764762624967,0.0
-1380.8063546126318,10794.195580590802,15007.580042991289,13850.769020072526,-149.43343197908789,2771.651949196444,4355.851162015231,-21448.234796744095,0.0
-1376.8287672456397,10799.935691701252,15012.700889002685,13855.544506701757,-145.0747583972943,2779.178401938776,4364.366057127206,-21426.822515049927,0.0
-1371.3506529078663,10806.17597846863,15021.40632722206,13864.33330753062,-135.8334176883548,2787.5622986644116,4374.726838592124,-21399.61057752425,0.0
-1367.7779696441012,10806.390339464453,15023.32366724028,13867.655902965922,-130.89120584014623,2793.338136607499,4383.4322768115,-21386.213015285128,0.0
-1373.3156287029374,10796.327281604848,15012.284075955245,13858.093020763245,-141.0733531418772,2781.012379347509,4369.844171464979,-21390.202511596337,0.0
-1375.5545102148967,10796.684549931226,15011.891080796231,13858.736103750722,-136.0358697399682,2785.5139602598533,4365.616496269523,-21406.315313115912,0.0
-1372.7320904365224,10808.629220976414,15021.358691445208,13866.810367926832,-124.7938264033202,2796.756003596501,4370.141895070292,-21426.250885727724,0.0
-1364.4553742087994,10815.500681787056,15030.611941098361,13877.480781941276,-115.29048892170464,2806.485611018155,4378.597245461203,-21439.16018125413,0.0
-1366.1583532311943,10809.022216135429,15024.68128688051,13868.096533901788,-134.35670860599853,2783.215534026831,4376.06064034393,-21452.140930445814,0.0
-1371.469742349992,10805.4852597043,15019.846255530216,13862.237333349212,-140.43027015439947,2780.369296360031,4373.154857956068,-21448.592065070472,0.0
-1369.0998624516944,10812.213813184393,15029.57586295187,13873.181653080546,-128.7475958818871,2787.7647507160254,4372.380776582252,-21430.883465026407,0.0
-1359.88233963118,10810.20120161247,15028.301605921126,13873.193562024759,-126.00853871300039,2789.2176419099565,4373.154857956068,-21395.08517872348,0.0
-1355.928570152613,10808.903126693303,15026.991622057745,13872.467116427792,-123.7339303684032,2794.005037483402,4377.477804705224,-21376.17377531395,0.0
-1360.0728827385808,10814.083517425763,15028.706510024354,13871.014225233863,-125.88944927087488,2796.5059157680375,4388.338761827071,-21367.134886656622,0.0
-1363.1811171780564,10808.629220976414,15024.538379549962,13865.08357101601,-134.10662077753497,2793.8264033202136,4388.672212265021,-21378.472201546974,0.0
-1362.3594000273906,10809.772479620819,15024.383563275198,13865.50038406345,-132.09400920561387,2796.232010051149,4386.338059199362,-21394.20391685175,0.0
-1358.346085827761,10819.20436343716,15032.469736395518,13873.634192960622,-122.65021644506106,2804.1514579524955,4389.041389535611,-21405.291143913633,0.0
-1357.0837377412306,10823.324858134702,15038.340845892306,13879.803026062724,-117.98191031374112,2805.6996207001266,4392.530710189888,-21423.226013897736,0.0
-1359.0129867036637,10820.026080587824,15034.315622748465,13875.622986644119,-123.88874664316636,2797.018000369177,4382.896374321935,-21439.981898404796,0.0
-1361.370957657749,10815.214867125955,15028.527875861164,13868.513346949225,-128.27123811338507,2789.6701817900334,4367.950649335184,-21436.290125698906,0.0
-1358.0840890550849,10816.59630465461,15028.122971757937,13867.60826718907,-128.5213259418486,2798.8877046105476,4382.682013326108,-21414.496757789937,0.0
-1353.8802317480543,10821.359882339631,15033.136637271422,13872.979201028931,-125.96090293615019,2808.1766810963372,4398.759088013052,-21388.392352076025,0.0
-1358.977259871026,10819.085273995033,15030.397580102537,13869.37079093253,-131.8201034887252,2801.078950345657,4396.139120286291,-21381.03262455267,0.0
-1361.1446877177104,10814.45269469635,15026.467628512393,13865.91719711089,-134.582978546037,2795.076842462531,4380.6813106984,-21383.843135386833,0.0
-1362.395126860028,10809.581936513418,15025.264825146927,13867.667811910134,-129.67649353046605,2799.5307875980257,4384.384992348503,-21391.63158490184,0.0
-1362.0378585336516,10809.45093812708,15026.896350504045,13871.216677285474,-124.4127401885186,2803.4964660208047,4396.663113831643,-21397.14542607225,0.0
-1359.2630745321273,10809.927295895583,15025.1457357048,13869.501789318869,-125.78226877296193,2799.0544298295235,4389.5058383599,-21419.49851435921,0.0
-1358.8343525404755,10806.592791516068,15024.133475446735,13870.204417027408,-123.38857098623922,2800.0905079760155,4377.9065266968755,-21441.017976551288,0.0
-1361.8234975378257,10810.260746333533,15024.431199052047,13863.30913832834,-135.42851358512812,2782.4890884298648,4361.198277966666,-21453.66527530502,0.0
-1362.6452146884917,10816.6796672641,15023.41893879398,13855.830321362859,-147.81381556618098,2779.7023954841284,4368.343644494197,-21451.05721652247,0.0
-1361.6448633746377,10815.298229735441,15022.883036304416,13857.890568711631,-140.84708320183876,2792.528328401045,4380.07395454356,-21430.466651978968,0.0
-1361.0017803871597,10810.868102488374,15019.179354654314,13856.890217397777,-139.9300944974723,2797.7206280777177,4388.017220333331,-21406.684490386506,0.0
-1358.2984500509108,10807.616960718347,15015.654307167397,13853.293716245586,-145.0747583972943,2796.6964588754386,4395.472219410389,-21386.30828683883,0.0
-1354.8567651734836,10809.641481234481,15018.643452164748,13855.901775028135,-145.81311293847244,2788.25301742874,4388.696030153446,-21368.29005424524,0.0
-1357.333825569694,10810.737104102034,15022.370951703277,13861.403707254332,-138.20329758665244,2793.0880487790355,4393.483425726892,-21375.816506987572,0.0
-1359.3702550300402,10811.701728583253,15026.098451241804,13869.251701490404,-126.34198915095182,2799.828511203339,4394.197962379645,-21391.810219065028,0.0
-1360.3825152881072,10808.950762470153,15025.407732477477,13870.383051190596,-125.04391423178379,2796.625005210163,4388.660303320809,-21414.734936674187,0.0
-1360.2396079575565,10816.155673718747,15032.19583067863,13874.158186505974,-127.15179735740527,2790.182266391173,4380.181135041473,-21435.27786544084,0.0
-1361.8115885936131,10818.64464305917,15033.934536533663,13875.742076086244,-125.52027200028583,2788.9556451372805,4366.331032922276,-21442.971043402147,0.0
-1359.3107103089776,10817.025026646263,15028.87323524333,13870.228234915834,-130.17666918739317,2783.6442560184823,4350.206322458483,-21442.875771848445,0.0
-1357.8459101708338,10814.85759879958,15027.765703431562,13868.15607862285,-134.99979159347626,2772.8428436176987,4341.810516788634,-21419.54615013606,0.0
-1358.2508142740605,10810.510834161996,15025.872181301766,13869.096885215642,-129.48595042306525,2786.740581513746,4370.380073954543,-21405.02914714096,0.0
-1355.8452075431253,10813.678613322536,15030.504760600448,13873.538921406922,-127.08034369212997,2795.3150213467825,4374.5482044289365,-21396.049803204696,0.0
-1355.0234903924593,10816.977390869411,15032.588825837644,13872.74102214468,-130.10521552211787,2787.2407571706726,4368.367462382623,-21381.020715608458,0.0
