EEG 1,EEG 2,EEG 3,EEG 4,EEG 5,EEG 6,EEG 7,EEG 8,Trigger
-531.1150939913422,10966.934816393852,14099.45159311901,11933.810088066642,-2989.109270517622,1367.8136964767386,1284.689265873134,-24003.024871829988,0.0
-529.5788401879231,10966.720455398026,14098.41551497252,11933.905359620341,-2989.406994122936,1371.4340155173543,1286.809057942968,-24004.584943521833,0.0
-526.958872461162,10969.852507725927,14100.582942819203,11938.133034815797,-2984.822050601104,1371.4816512942045,1288.666853240126,-23989.246223376067,0.0
-525.8989764262449,10969.102244240537,14100.65439648448,11938.7999356917,-2984.6195985494905,1368.0161485283522,1287.2258709904074,-23964.630435688723,0.0
-524.9105340566032,10968.69734013731,14099.880315110664,11939.061932464378,-2982.011539766942,1370.933839860427,1283.8794576666805,-23939.085750352802,0.0
-523.5171875837348,10969.471421511125,14099.868406166452,11938.966660910677,-2981.3922746678895,1373.613352308251,1283.891366610893,-23915.613221309864,0.0
-524.0769079617246,10966.160735020037,14097.48661732394,11936.17996796494,-2982.4998064796564,1374.8757003947815,1293.8829708052233,-23912.46926003775,0.0
-526.2205179199838,10964.529209662918,14096.51008389851,11932.416741593774,-2988.2994623111686,1372.874997767073,1295.4192246086423,-23927.272077693953,0.0
-526.1252463662834,10964.91029587772,14096.581537563787,11932.881190418062,-2990.0858039430514,1375.9117785412734,1294.3950554063629,-23949.101172435556,0.0
-527.328049731751,10964.993658487207,14092.699221750496,11929.439505540635,-2988.4542785859317,1373.827713304077,1296.4433938109216,-23973.82414062081,0.0
-530.0790158448503,10959.027277436719,14085.851578828278,11921.162789312913,-2996.302272822003,1361.4662292114492,1291.3225477995247,-23988.353052560124,0.0
-530.6982809439029,10957.848291959675,14088.019006674964,11925.712006002108,-2992.408048064499,1363.7408375560465,1292.8230747703062,-23982.255673123298,0.0
-529.2930255268219,10966.184552908462,14097.141257941776,11935.334432925849,-2983.3810683513852,1371.6841033458177,1291.1677315247618,-23969.23919709898,0.0
-526.1490642547085,10970.459863880767,14100.440035488653,11939.383473958116,-2980.1775623582093,1372.577274161759,1288.7859426822515,-23941.943896963814,0.0
-525.5297991556558,10970.340774438642,14100.04704032964,11938.3235779232,-2980.1656534139966,1369.242769782245,1283.1053762928648,-23907.503230301118,0.0
-522.8621956520445,10968.709249081523,14098.165427144055,11938.311668978988,-2977.855318236762,1371.9818269511318,1288.535854853788,-23884.92387207412,0.0
-521.8975711708279,10972.90119744434,14100.261401325466,11938.740390970637,-2977.5814125198726,1374.566067845255,1289.5362061676421,-23886.305309602776,0.0
-522.3382021066922,10974.496995968822,14100.55912493078,11938.144943760011,-2977.1765084166464,1374.7089751758056,1288.6549442959133,-23903.537551878337,0.0
-523.2909176436963,10969.4476036227,14093.13985268636,11930.29694952394,-2985.3817709790937,1369.373768168583,1288.845487403314,-23921.960688575153,0.0
-525.0177145545161,10967.315902608654,14091.174876891288,11928.022341179341,-2989.0973615734097,1366.4441678922954,1282.5932916917252,-23942.122531127003,0.0
-526.8159651306113,10971.364943640921,14091.627416771365,11931.464026056768,-2983.238161020835,1372.6487278270345,1288.107132862136,-23958.60450991717,0.0
-527.8758611655284,10974.104000809808,14085.351403171351,11929.475232373274,-2982.8451658618205,1374.2207084630911,1295.8836734329316,-23957.80661065493,0.0
-529.6622027974109,10974.306452861421,14084.422505522773,11930.72567151559,-2979.0819394906543,1375.0305166695446,1298.3488248849299,-23941.658082302714,0.0
-528.4832173203685,10973.60382515288,14095.081010593007,11939.061932464378,-2973.389464157055,1378.3412031606338,1303.1719472910129,-23915.87521808254,0.0
-528.1140400497793,10961.063706897065,14090.53179390381,11928.034250123554,-2984.941140043229,1372.25573266802,1297.8248313395777,-23886.82930314813,0.0
-527.911587998166,10957.598204131213,14086.542297592607,11921.353332420314,-2989.7523535051,1371.5292870710546,1294.3712375179377,-23861.02262103953,0.0
-527.7091359465527,10961.313794725529,14088.685907550866,11922.27032112468,-2989.216451015535,1375.2925134422208,1301.1116999422416,-23861.80861135756,0.0
-527.673409113915,10964.73166171453,14089.305172649918,11923.818483872312,-2989.275995736598,1371.969918006919,1296.7411174162355,-23874.78936054924,0.0
-530.4124662828017,10966.839544840152,14091.50832732924,11927.141079307614,-2986.536938567711,1371.5650139036923,1294.3355106853003,-23893.260133022904,0.0
-532.127354249409,10968.61397752782,14094.009205613876,11929.64195759225,-2984.7029611589783,1378.65083571016,1307.3400777654056,-23912.052446990314,0.0
-532.020173751496,10969.030790575262,14094.211657665488,11931.547388666258,-2978.486492280027,1383.9384069405326,1306.3397264515513,-23935.941789080687,0.0
-530.614918334415,10967.685079879244,14091.97277615353,11929.201326656384,-2979.7012045897072,1376.745404636152,1303.0528578488872,-23946.27875265718,0.0
-531.8534485325204,10968.387707587783,14091.008151672315,11928.736877832096,-2981.797178771116,1372.184279002745,1294.549871681126,-23933.14318719074,0.0
-534.8545024740831,10968.387707587783,14091.41305577554,11930.99957723248,-2979.617841980219,1374.4231605147045,1295.4668603854925,-23900.965219928425,0.0
-532.9728892885001,10971.424488361983,14096.236178181622,11934.834257268922,-2976.497698596531,1376.2333200350124,1296.3004864803709,-23867.56063141222,0.0
-533.4849738896398,10970.733769597657,14094.699924378205,11932.190471653736,-2977.9148629578244,1377.7338470057937,1296.800662137298,-23843.29020310704,0.0
-532.6870746273988,10971.472124138834,14096.152815572135,11935.096254041599,-2972.365294954776,1385.153119250213,1303.648305059515,-23844.600186970423,0.0
-534.0685121560548,10975.533074115314,14099.868406166452,11937.382771330407,-2971.7817566883605,1383.6168654467938,1302.7551342435736,-23858.509833810684,0.0
-532.1035363609839,10977.8910450694,14101.118845308769,11936.144241132302,-2974.9019000720486,1381.913886424399,1304.7915637039198,-23880.219839110163,0.0
-528.2688563245425,10983.631156179848,14106.63268647918,11943.349152380895,-2967.732715656093,1390.2263294847594,1315.0213467825008,-23897.630715548912,0.0
-522.7550151541315,10992.896314777214,14115.862118243906,11953.281211854162,-2957.5982041312122,1398.3244115492942,1324.5723200409668,-23903.68045920889,0.0
-521.4569402349634,10993.241674159377,14116.636199617722,11955.484366533485,-2953.954067202172,1401.5993712077454,1330.1457059324405,-23902.29902168023,0.0
-528.2807652687551,10982.880892694458,14104.274715525095,11945.064040347503,-2962.195056597257,1388.0589016380752,1310.8532163081081,-23893.569765572433,0.0
-538.0222816346217,10970.162140275454,14089.388535259406,11929.141781935323,-2979.582115147581,1368.0280574725648,1287.0353278830064,-23874.82508738188,0.0
-540.8447014129962,10967.554081492905,14084.815500681787,11922.27032112468,-2984.5124180515777,1365.0865482520646,1283.8556397782556,-23857.354666222065,0.0
-540.0587110949679,10968.673522248884,14086.959110640046,11924.009026979713,-2982.868983750245,1367.6231533693378,1287.8689539778852,-23835.90665769526,0.0
-539.4156281074901,10968.685431193098,14088.61445388559,11926.819537813875,-2980.2966518003345,1370.1002137655487,1290.7390095331098,-23833.584413573815,0.0
-539.5942622706784,10969.340423124788,14090.174525577435,11926.438451599073,-2981.2731852257634,1368.5282331294918,1292.0489933964905,-23852.305273875943,0.0
-539.7848053780792,10969.459512566913,14090.6151565133,11927.045807753913,-2979.9870192508083,1371.5888317921174,1296.6577548067476,-23878.183409649817,0.0
-536.1644863374638,10974.723265908862,14095.93845457631,11932.440559482198,-2974.2469081403588,1377.7576648942188,1303.2434009562883,-23893.653128181923,0.0
-535.5094944057735,10975.818888776415,14097.522344156578,11933.952995397192,-2972.7940169464277,1379.0200129807492,1302.743225299361,-23907.824771794854,0.0
-540.9876087435468,10975.985613995392,14096.259996070048,11930.737580459803,-2975.294895231063,1375.0543345579697,1302.7789521319987,-23909.14666460245,0.0
-548.1567931595024,10969.62623778589,14088.364366057127,11922.806223614245,-2983.7502456219745,1366.825254107097,1295.3358619991545,-23898.619157918554,0.0
-548.6093330395794,10972.115207126311,14086.447026038906,11922.87767727952,-2983.035708969221,1370.9457488046398,1294.0020602473487,-23872.788657921534,0.0
-542.2618657742897,10979.736931422343,14092.973127467383,11928.629697334183,-2978.486492280027,1377.3170339583544,1295.847946600294,-23840.46778332867,0.0
-538.7368182873747,10980.010837139233,14095.438278919382,11931.09484878618,-2971.746029855723,1378.174477941658,1297.4318361805633,-23814.125198730508,0.0
-539.4156281074901,10976.033249772241,14092.306226591481,11929.594321815399,-2975.2115326215753,1370.8623861951519,1299.3610851429967,-23818.662506475488,0.0
-540.797065636146,10973.484735710756,14088.150005061301,11927.81988912773,-2974.211181307721,1375.8760517086357,1302.9099505183367,-23835.358846261486,0.0
-541.964142168976,10977.247962081921,14090.507976015386,11927.712708629817,-2971.4244883619845,1381.6280717632978,1305.982458125175,-23854.05588867519,0.0
-542.785859319642,10977.271779970348,14092.663494917859,11931.940383825273,-2966.172643964249,1385.5818412418646,1304.5533848196687,-23873.33646935531,0.0
-543.0954918691683,10978.03395239995,14094.91428537403,11933.821997010855,-2968.804520635223,1383.9026801078949,1304.4819311543936,-23895.951554414944,0.0
-540.6184314729577,10983.726427733549,14098.546513358857,11936.489600514466,-2968.518705974122,1385.6652038513525,1307.9355249760333,-23890.34244169083,0.0
-538.6296377894618,10984.98877582008,14100.130402939127,11942.134440071215,-2959.277365265182,1392.9058419325834,1312.3299253904645,-23867.120000476356,0.0
-540.6779761940205,10978.712762220064,14092.949309578958,11930.427947910279,-2968.2090734245953,1386.498829946231,1312.7586473821164,-23844.07619342507,0.0
-540.7494298592958,10978.40312967054,14089.388535259406,11919.769442840045,-2978.4388565031763,1376.745404636152,1309.8528649942539,-23820.48457494001,0.0
-538.331914184148,10982.595078033357,14093.032672188447,11920.841247819175,-2980.5943754056484,1377.459941288905,1313.3660035369564,-23796.249873467466,0.0
-536.819478269154,10980.8325542899,14092.330044479906,11922.83004150267,-2980.2847428561217,1378.8651967059861,1313.7828165843957,-23796.011694583216,0.0
-536.8790229902168,10969.364241013214,14084.827409626,11922.258412180468,-2979.117666323292,1376.126139537099,1310.591219535432,-23816.947618508882,0.0
-537.7602848619455,10969.983506112267,14088.543000220316,11928.427245282568,-2973.5680983202433,1377.5552128426054,1311.0080325828712,-23838.443262812532,0.0
-539.3203565537897,10975.93797821854,14095.42636997517,11932.928826194913,-2969.0307905752616,1378.9128324828364,1304.8749263134075,-23863.178139942,0.0
-541.0233355761845,10979.594024091793,14096.236178181622,11932.714465199087,-2968.375798643571,1378.5674731006723,1297.705741897452,-23878.838401581506,0.0
-539.7133517128038,10981.499455165802,14092.413407089392,11928.391518449933,-2975.8188887764154,1369.2784966148824,1288.3691296348122,-23870.50214063272,0.0
-539.7014427685913,10981.82099665954,14091.36541999869,11929.117964046898,-2974.604176466735,1376.7811314687895,1296.860206858361,-23856.378132796635,0.0
-538.0103726904091,10982.499806479656,14089.662440976295,11931.32111872622,-2967.6017172697557,1388.7972561792533,1314.0448133570717,-23825.474422565065,0.0
-537.5340149219071,10977.462323077747,14084.065237196395,11923.973300147074,-2970.054959777541,1380.6515383378685,1311.3414830208228,-23799.239018464817,0.0
-535.9739432300629,10976.199974991217,14086.899565918984,11925.795368611596,-2970.47177282498,1384.2956752669093,1313.6399092538452,-23779.446353183557,0.0
-535.4142228520731,10973.056013719104,14085.184677952375,11924.41393108294,-2973.8539129813444,1382.259245806563,1314.7593500098249,-23779.64880523517,0.0
-535.5333122941986,10981.940086101666,14089.936346693185,11928.129521677256,-2969.995415056478,1381.6280717632978,1315.7477923794665,-23795.571063647352,0.0
-534.4972341477066,10988.085101315342,14094.44983654974,11930.606582073466,-2967.744624600306,1380.5443578399556,1312.9968262663672,-23818.317147093323,0.0
-534.4972341477066,10981.130277895212,14092.079956651443,11927.295895582376,-2970.7575874860813,1380.9730798316075,1306.3039996189136,-23840.503510161303,0.0
-538.6058199010366,10979.236755765418,14093.5566657338,11929.999225918626,-2967.137268445466,1387.4991812600854,1314.2591743528976,-23856.568675904036,0.0
-537.7721938061582,10988.573368028057,14102.01201612471,11937.096956669306,-2963.6479477911885,1390.9289571933,1319.237113033744,-23850.507023299848,0.0
-533.9494227139294,10992.860587944575,14106.406416539141,11942.563162062866,-2960.5635312401378,1392.7986614346705,1321.6427197646792,-23830.892992181776,0.0
-531.3056370987431,10994.384932803781,14106.53741492548,11944.004144312585,-2957.943563513377,1391.2624076312513,1320.273191180236,-23803.978778261415,0.0
-530.3052857848887,10989.013998963921,14101.988198236284,11939.35965606969,-2961.051797952852,1386.0343811219418,1319.344293531657,-23776.600115516758,0.0
-529.5788401879231,10982.38071703753,14096.8792611691,11935.751245973288,-2961.623427275055,1384.9268493101742,1317.6413145092622,-23760.77312865828,0.0
-530.614918334415,10988.20419075747,14101.607112021482,11940.181373220357,-2957.1218463627106,1387.665906479061,1314.3901727392358,-23761.404302701543,0.0
-530.853097218666,10991.753056132808,14103.59590570498,11941.943896963814,-2958.0507440112897,1382.687967798215,1309.2574177836264,-23773.861058347873,0.0
-532.1392631936216,10991.931690295996,14101.702383575184,11937.513769716745,-2962.2426923741077,1383.104780845654,1308.1856128044967,-23801.585080474688,0.0
-534.1876015981803,10992.396139120287,14100.678214372905,11937.073138780881,-2961.516246777142,1385.7128396282028,1315.5810671604909,-23824.152529757474,0.0
-532.9967071769252,10991.14569997797,14100.440035488653,11938.502212086387,-2958.408012337666,1391.9412174513668,1322.0833507005436,-23833.71541196015,0.0
-533.5802454433402,10990.91943003793,14099.475411007437,11936.775415175567,-2960.3968060211623,1390.2382384289722,1319.5229276948453,-23831.54798411347,0.0
-533.663608052828,10993.670396151028,14101.452295746722,11938.633210472724,-2959.182093711482,1395.251903942456,1325.7989412948596,-23826.903495870574,0.0
-532.472713631573,10996.064093937752,14104.560530186196,11943.110973496645,-2953.358619991545,1401.1349223834561,1328.014004918394,-23797.416950000297,0.0
-531.2699102661054,10998.934149492978,14104.846344847298,11939.978921168744,-2958.1341066207774,1391.7625832881786,1324.9534062557684,-23771.05054751371,0.0
-530.4243752270143,10997.755164015934,14101.54756730042,11936.191876909152,-2962.5880517562714,1390.0834221542088,1324.5008663756914,-23750.162259364897,0.0
-531.4485444292936,10993.991937644767,14100.904484312943,11935.417795535335,-2962.4213265372955,1389.4284302225185,1316.0336070405679,-23750.150350420685,0.0
-531.4485444292936,10991.776874021234,14100.547215986568,11936.584872068166,-2959.5631799262837,1391.1552271333385,1316.4861469206446,-23759.129694356947,0.0
-529.1620271404839,10993.003495275127,14101.190298974045,11938.09730798316,-2956.3358560446823,1396.5142520289864,1323.9173281092765,-23788.31851662191,0.0
-529.3525702478847,10998.541154333963,14105.906240882216,11942.62270678393,-2952.9298979998925,1400.3727499538527,1329.8003465502763,-23811.71959199957,0.0
-531.6390875366944,11004.293174388624,14109.49083309019,11944.825861463252,-2953.8587956484716,1401.265920769794,1329.2525351164993,-23828.082481347614,0.0
-533.8898779928666,11003.53100195902,14107.38294996457,11942.753705170267,-2953.370528935757,1401.7780053709337,1334.611560012147,-23820.198760278905,0.0
-534.3185999845183,11000.625219571159,14106.001512435914,11941.134088757362,-2956.002405606731,1400.5632930612537,1337.898428614811,-23804.347955532,0.0
-531.1627297681923,11004.436081719174,14108.609571218463,11944.54004680215,-2951.941455630251,1402.3258168047112,1338.934506761303,-23779.422535295133,0.0
-530.4839199480771,11007.627678768138,14107.168588968745,11942.586979951291,-2953.846886704259,1398.0385968881928,1331.408054018971,-23753.961212568698,0.0
-531.1865476566174,11003.388094628472,14102.79800644274,11938.788026747488,-2956.133403993069,1391.9173995629417,1322.869341018572,-23730.96504129426,0.0
-531.4366354850811,10998.493518557112,14100.582942819203,11937.740039656783,-2956.7050333152715,1396.0974389815472,1330.1695238208656,-23731.35803645328,0.0
-531.1627297681923,10991.657784579109,14097.24843843969,11935.5726118101,-2959.503635205221,1400.0273905716888,1333.2896672045538,-23749.14999910683,0.0
-531.3889997082308,10991.824509798083,14095.997999297371,11934.024449062468,-2961.099433729703,1401.48028176562,1337.7197944516229,-23770.57418974521,0.0
-531.1508208239799,10994.504022245907,14095.831274078397,11931.059121953544,-2963.612220958551,1398.8603140388589,1338.5534205465015,-23791.081391679218,0.0
-531.0317313818543,10996.75481270208,14099.642136226414,11934.369808444633,-2959.92044825266,1397.133517128039,1337.3863440136713,-23811.20750739843,0.0
-534.247146319243,10994.08720919847,14100.201856604403,11935.191525595297,-2960.646893849626,1398.1815042187434,1343.1859998451837,-23816.74516645727,0.0
-532.9967071769252,10998.553063278176,14101.345115248807,11939.419200790753,-2958.491374947154,1396.1093479257595,1335.0283730595863,-23797.61940205191,0.0
-529.0072108657207,11005.317343590903,14105.775242495876,11947.624463353202,-2944.260186613156,1398.9913124251968,1322.285802752157,-23770.359828749384,0.0
-528.6499425393441,11007.984947094516,14109.943372970269,11948.315182117529,-2942.7834775307992,1398.9198587599217,1317.0935030754847,-23748.495007175137,0.0
-527.9592237750162,11005.460250921453,14107.52585729512,11947.612554408988,-2944.6412728279574,1400.2298426233021,1319.7849244675213,-23718.877462918525,0.0
-530.6268272786276,11003.269005186346,14102.226377120534,11939.943194336105,-2950.3337481615563,1399.8487564085005,1324.1912338261652,-23717.638932720416,0.0
-533.663608052828,11003.328549907408,14102.321648674237,11938.168761648436,-2952.370177621903,1400.289387344365,1336.0763601502908,-23736.5027003531,0.0
-533.4849738896398,11007.056049445937,14109.276472094365,11947.672099130052,-2944.4745476089815,1405.2077813041485,1334.2542916857706,-23756.34300141121,0.0
-533.8541511602289,11006.948868948024,14109.562286755467,11945.016404570652,-2951.6675499133626,1394.9422713929296,1325.3106745821449,-23781.28033059229,0.0
-535.9143985090002,10996.719085869441,14100.975937978217,11939.800287005555,-2951.310281586986,1394.215825795964,1327.2041967119403,-23805.360215790068,0.0
-536.4622099427775,10994.301570194295,14099.927950887515,11938.7999356917,-2951.0244669258846,1394.4778225686402,1328.014004918394,-23803.895415651925,0.0
-534.1637837097552,11001.911385546115,14105.7037888306,11942.003441684878,-2952.120089793439,1397.4431496775653,1330.2528864303536,-23787.21098481014,0.0
-531.19845660083,10997.77898190436,14104.012718752418,11944.266141085262,-2948.7498585812873,1404.2907925997822,1336.1597227597786,-23758.915333361118,0.0
-531.0436403260668,11001.101577339661,14106.21587343174,11945.754759111831,-2943.617103625678,1403.361894951203,1334.3257453510457,-23731.429490118553,0.0
-529.4002060247349,11006.853597394322,14112.43234231069,11951.744958050744,-2938.662982833257,1403.361894951203,1335.4809129396633,-23705.81335111736,0.0
-529.555022299498,11005.900881857318,14109.907646137632,11947.957913791153,-2941.4020400021436,1403.20707867644,1339.7204970793314,-23703.788830601225,0.0
-528.602306762494,11001.66129771765,14102.321648674237,11936.263330574428,-2949.6787562298664,1400.2417515675147,1339.565680804568,-23721.19970703997,0.0
-529.2572986941843,11002.614013254655,14103.703086202893,11938.19257953686,-2949.261943182427,1400.8252898339297,1338.0175180569368,-23744.838961301884,0.0
-531.5795428156316,11006.31769490476,14109.01447532169,11942.932339333456,-2948.8570390792006,1401.718460649871,1338.5057847696512,-23769.204661160762,0.0
-532.7585282926742,11008.806664245181,14112.408524422268,11946.886108812023,-2943.5932857372527,1405.6603211842255,1342.3523737503053,-23785.198373238218,0.0
-534.330508928731,11010.211919662263,14113.12306107502,11948.434271559654,-2942.1761213759596,1405.5531406863124,1340.0182206846453,-23775.849852031366,0.0
-533.985149546567,11010.473916434938,14111.920257709551,11947.743552795328,-2942.235666097022,1405.6484122400127,1338.672509988627,-23759.105876468522,0.0
-529.7693832953239,11012.403165397373,14113.361239959271,11949.589439148273,-2941.8069441053703,1406.5773098885918,1337.207709850483,-23740.587468218004,0.0
-525.1606218850668,11018.822086327935,14120.649513817352,11955.472457589272,-2937.0671843087753,1407.5657522582335,1334.373381127896,-23712.625267206935,0.0
-521.6832101750019,11018.071822842545,14120.685240649991,11956.496626791552,-2935.042663792641,1412.1864226127032,1343.1859998451837,-23683.436444941974,0.0
-519.0513335040282,11015.15413151047,14118.744082743344,11955.9726332462,-2933.518318933435,1418.128985774766,1358.5009021025242,-23679.22067869073,0.0
-521.4331223465383,11017.238196747667,14116.791015892486,11953.257393965738,-2936.138286660196,1415.3661107174541,1352.8917893784126,-23695.250117600823,0.0
-527.5424107275769,11011.498085637217,14110.00291769133,11947.076651919424,-2941.8783977706457,1409.1734597269278,1346.2942342846595,-23728.916702889703,0.0
-536.0096700627006,11004.948166320313,14102.678917000612,11938.275942146349,-2949.0594911308135,1405.6007764631624,1345.0437951423417,-23759.963320451825,0.0
-540.0229842623302,11004.507535384451,14099.939859831726,11933.309912409715,-2954.69242174335,1400.9562882202679,1332.2535890580618,-23776.957383843135,0.0
-539.0226329484759,11002.12574654194,14096.402903400598,11930.66612679453,-2958.70573594298,1392.5604825504195,1320.8210026140132,-23773.95632990157,0.0
-535.8429448437249,11009.556927730571,14102.226377120534,11937.15650139037,-2951.524642582812,1400.8610166665674,1340.9828451658618,-23757.438624278762,0.0
-531.2222744892551,11012.367438564734,14105.6085172769,11940.312371606695,-2950.0122066678177,1408.697101958426,1352.058163283534,-23729.797964761434,0.0
-529.6145670205608,11007.568134047076,14101.952471403649,11937.358953441983,-2950.881559595334,1412.4484193853793,1359.5131623605907,-23705.26553968358,0.0
-528.387945766668,11013.093884161699,14107.79976301201,11942.241620569128,-2947.678053602158,1409.0900971174399,1357.6672760076456,-23682.62663673552,0.0
-526.8397830190364,11015.725760832673,14108.359483389999,11943.206245050344,-2947.868596709559,1403.3499860069905,1343.1740909009711,-23687.926116910105,0.0
-528.7094872604068,11006.52014695637,14104.25089763667,11945.957211163444,-2941.497311555844,1406.7916708844177,1337.4577976789467,-23701.99058002513,0.0
-530.4362841712268,11007.651496656563,14108.931112712202,11950.768424625314,-2932.1964261258418,1404.7552414240715,1331.1222393578696,-23727.189905978885,0.0
-529.4835686342227,11008.544667472504,14108.7405696048,11948.100821121703,-2934.5067613030765,1402.4449062468366,1330.8364246967683,-23752.65122870532,0.0
-531.281819210318,11001.375483056549,14102.25019500896,11941.134088757362,-2942.6524791444617,1400.420385730703,1334.3376542952585,-23770.657552354693,0.0
-534.4376894266438,11002.959372636818,14102.023925068923,11938.966660910677,-2945.9869835239756,1400.3727499538527,1336.231176425054,-23768.6687586712,0.0
-533.0086161211378,11007.699132433414,14103.51254309549,11940.121828499294,-2947.070697447318,1402.4925420236868,1337.9579733358737,-23748.923729166792,0.0
-531.1270029355547,11007.198956776487,14099.189596346336,11935.786972805927,-2949.6787562298664,1400.7538361686545,1332.9323988781775,-23721.259251761032,0.0
-531.1865476566174,11003.959723950673,14098.891872741022,11936.32287529549,-2946.37997868299,1404.6956967030087,1339.4346824182303,-23697.167457619045,0.0
-530.7935524976033,11005.44834197724,14100.142311883339,11938.93093407804,-2943.224108466664,1405.0648739735977,1340.3635800668092,-23675.29072710059,0.0
-528.8881214235952,11010.271464383326,14100.98784692243,11939.40729184654,-2944.510274441619,1406.7916708844177,1343.6147218368355,-23677.350974449357,0.0
-528.9833929772956,11005.996153411019,14094.342656051827,11930.606582073466,-2953.5491630989454,1402.5520867447497,1342.8644583514447,-23691.30825706647,0.0
-530.5315557249272,11005.96042657838,14096.331449735324,11931.011486176692,-2953.799250927409,1401.8375500919967,1345.329609803443,-23714.70933244413,0.0
-531.9129932535831,11001.315938335487,14100.309037102315,11934.69134993837,-2949.4643952340407,1404.6480609261585,1349.7716459947244,-23739.134577024073,0.0
-531.5080891503563,10997.659892462234,14100.309037102315,11935.513067089038,-2948.7974943581376,1401.7303695940836,1348.6164784061068,-23751.245973288238,0.0
-529.0310287541457,11008.044491815577,14109.609922532318,11943.70642070727,-2942.2475750412345,1402.5997225216,1343.840991776874,-23749.29290643738,0.0
-529.2453897499717,11007.806312931327,14110.550729125109,11946.231116880334,-2937.853174626803,1407.4585717603206,1337.3267992926087,-23738.181861487068,0.0
-528.3641278782429,11008.10403653664,14108.812023270077,11942.372618955467,-2940.735139126241,1408.4827409625998,1334.5281974026593,-23715.01896499366,0.0
-526.5777862463603,11011.676719800407,14108.657206995313,11943.09906455243,-2938.341441339518,1411.4242501831,1340.1611280151958,-23685.365693904405,0.0
-523.350462364759,11018.46481800156,14112.801519581282,11947.350557636313,-2936.4955549865726,1416.199736812333,1348.6879320713822,-23663.26269344591,0.0
-522.1595679435039,11017.214378859242,14110.800816953571,11947.040925086785,-2936.1978313812588,1414.758754562614,1349.4262866125605,-23658.39193526298,0.0
-523.8387290774737,11011.629084023556,14105.263157894737,11940.479096825671,-2940.246872413526,1410.1261752639318,1351.736621789795,-23677.565335445186,0.0
-523.9220916869614,11013.546424041777,14108.514299664763,11942.503617341805,-2940.985226954704,1409.8879963796808,1354.65431312187,-23697.274638116956,0.0
-526.0776105894332,11010.604914821277,14106.596959646542,11943.515877599872,-2939.7347878123865,1410.947892414598,1353.9755033017548,-23717.067303398217,0.0
-529.0548466425709,11010.688277430763,14107.025681638193,11949.648983869336,-2931.231801644625,1417.497811731501,1357.2861897928437,-23740.027747840017,0.0
-529.2453897499717,11012.605617448984,14110.717454344085,11953.328847631014,-2929.326370570617,1412.7342340464807,1347.4970376501271,-23754.044575178188,0.0
-530.6506451670527,11011.212270976115,14110.181551854519,11947.564918632139,-2932.7442375596193,1406.7202172191423,1340.423124787872,-23736.657516627864,0.0
-530.1623784543381,11009.83083344746,14106.346871818077,11940.729184654134,-2938.0079909015662,1407.1132123781565,1346.2346895635967,-23707.92123424298,0.0
-528.2450384361175,11010.426280658086,14105.179795285248,11938.740390970637,-2942.7834775307992,1405.4221422999744,1345.8893301814328,-23679.69703645923,0.0
-527.0422350706498,11009.747470837972,14105.97769454749,11941.50326602795,-2939.3775194860095,1405.3268707462742,1345.746422850882,-23657.582127056525,0.0
-525.5774349325061,11013.14151993855,14110.08628030082,11947.731643851115,-2932.089245627929,1412.2340583895534,1354.6900399545077,-23654.414347895985,0.0
-525.2320755503421,11019.858164474428,14114.766495376352,11950.875605123227,-2930.5291739360846,1412.329329943254,1349.6525565525988,-23668.228723182543,0.0
-526.3396073621093,11019.53662298069,14114.0519587236,11950.506427852639,-2930.636354433998,1414.7111187857638,1346.7944099415868,-23696.143288416766,0.0
-529.5073865226478,11015.499490892635,14110.824634841998,11947.362466580526,-2932.7323286154065,1417.759808504177,1351.9390738414086,-23720.759076104106,0.0
-531.3532728755932,11014.808772128306,14111.801168267426,11948.36281789438,-2933.5540457660722,1420.784680334165,1357.310007681269,-23738.944033916672,0.0
-533.5683364991276,11015.130313622045,14109.979099802908,11944.480502081087,-2933.1729595512707,1416.9261824092985,1353.2609666490018,-23738.813035530333,0.0
-535.0569545256966,11016.511751150701,14107.442494685634,11938.490303142175,-2940.3302350230138,1409.411638611179,1353.1061503742387,-23719.69918006919,0.0
-533.8303332718039,11016.797565811801,14108.31184761315,11942.741796226055,-2938.1389892879047,1409.1615507827153,1354.892492006121,-23692.701603539335,0.0
-533.1634323959009,11018.881631048998,14110.300641296646,11947.934095902727,-2932.1487903489915,1415.9377400396565,1359.060622480514,-23666.84728565389,0.0
-531.5795428156316,11022.23995331694,14112.741974860219,11953.459846017351,-2924.348431889771,1419.2841533633834,1355.452212384111,-23645.05391774492,0.0
-528.6142157067064,11019.143627821675,14111.693987769513,11953.459846017351,-2919.8468509774266,1421.2967649353045,1350.4504558148396,-23643.481937108863,0.0
-527.3518676201761,11020.155888079742,14115.862118243906,11951.935501158145,-2924.931970156186,1420.8442250552275,1352.9156072668377,-23660.988085101315,0.0
-529.4121149689474,11021.977956544262,14111.122358447312,11944.86158829589,-2935.2808426768925,1414.2228520730494,1351.3793534634187,-23684.40106942319,0.0
-531.1270029355547,11022.871127360204,14107.19240685717,11941.574719693224,-2934.685395466265,1415.5685627690677,1356.3572921442649,-23711.76782322363,0.0
-532.9728892885001,11027.301254607273,14112.765792748643,11945.218856622265,-2931.493798417301,1420.5107746172762,1353.118059318451,-23729.83369159407,0.0
-534.4257804824314,11024.859921043699,14116.302749179771,11947.660190185838,-2933.9470409250866,1414.580120399426,1347.8781238649287,-23730.107597310962,0.0
-534.5448699245568,11020.251159633443,14111.693987769513,11946.469295764584,-2935.3999321190176,1414.4372130688755,1350.2599127074388,-23712.08936471737,0.0
-529.4835686342227,11025.157644649014,14113.254059461358,11952.507130480346,-2926.53967762488,1423.1545602324625,1359.2392566437022,-23678.279872097937,0.0
-527.2923228991133,11032.993729940872,14118.422541249605,11955.686818585098,-2919.358584264712,1425.4053506886346,1363.5622033928582,-23653.556903912682,0.0
-527.9473148308036,11034.19653330634,14120.173156048852,11953.066850858337,-2923.59816840438,1421.6421243174684,1361.5972275977874,-23633.823783352484,0.0
-526.1252463662834,11030.647667931,14122.23340339762,11954.543559940692,-2923.5148057948923,1422.511477244985,1358.9058062057507,-23633.52605974717,0.0
-526.8993277400992,11026.860623671408,14123.424297818876,11955.889270636711,-2924.8486075466976,1423.297467563013,1362.0735853662893,-23646.602080492554,0.0
-526.1252463662834,11031.421749304816,14127.509065683782,11961.117297146022,-2916.4647108210625,1431.3836406833352,1368.6592315158298,-23670.06270059128,0.0
-526.5182415252976,11038.841021549233,14132.320279145652,11963.796809593845,-2914.4759171375663,1431.7290000654991,1371.8270106763684,-23695.166754991336,0.0
-526.4586968042348,11042.425613757212,14134.761612709224,11964.928159294037,-2912.3442161235193,1429.7878421588534,1370.8862040835768,-23710.696018244504,0.0
-526.6492399116356,11042.997243079415,14135.869144520992,11965.72605855628,-2911.9274030760803,1429.478209609327,1364.3839205435243,-23712.88726397961,0.0
-528.6856693719818,11041.43717138757,14135.190334700877,11966.130962659505,-2912.8443917804466,1431.5265480138858,1365.8368117374553,-23695.154846047124,0.0
-530.9483687723664,11040.651181069541,14131.736740879238,11965.094884513013,-2913.975741480639,1434.6824182302119,1371.4459244615668,-23670.146063200766,0.0
-529.6741117416235,11038.531388999709,14130.486301736919,11967.798214849261,-2912.0464925182055,1435.5398622135153,1370.9814756372773,-23642.41013212974,0.0
-525.8037048725445,11036.125782268773,14127.663881958544,11964.940068238251,-2913.713744707963,1432.241084666639,1366.4084410596577,-23612.9593130921,0.0
-522.5763809909432,11036.590231093061,14130.30766757373,11967.22658552706,-2909.462251624082,1432.241084666639,1366.9919793260729,-23603.289250391506,0.0
-522.1595679435039,11036.590231093061,14131.415199385498,11967.798214849261,-2909.462251624082,1431.5860927349486,1371.4221065731417,-23624.451444257207,0.0
-523.9101827427489,11032.493554283945,14124.519920686433,11961.593654914523,-2915.797809945159,1425.4887132981225,1364.8960051446638,-23671.217868179898,0.0
-524.6128104512894,11029.421046677106,14118.970352683382,11955.710636473523,-2920.6923860165175,1422.797291906086,1360.2991526786193,-23696.82209823688,0.0
-524.4579941765262,11030.766757373125,14119.732525112986,11955.317641314508,-2920.1207566943153,1424.1906383789544,1362.1926748084147,-23706.05153000161,0.0
-524.8390803913278,11030.731030540486,14119.410983619247,11955.031826653409,-2920.0612119732527,1425.8340726802865,1364.9793677541518,-23705.753806396293,0.0
-526.3038805294716,11029.861677612971,14115.826391411269,11951.482961278067,-2922.3477292620623,1427.0606939341792,1366.5989841670587,-23692.213336826622,0.0
-525.8632495936073,11028.96850679703,14112.491887031754,11948.958265105006,-2926.253862963779,1424.2740009884424,1360.7516925586963,-23666.9544661518,0.0
-523.0051029825951,11028.956597852817,14112.360888645417,11950.458792075788,-2923.4314431854045,1423.9643684389162,1361.1565966619228,-23638.32536426483,0.0
-521.4807581233886,11028.45642219589,14114.099594500449,11953.126395579398,-2921.0496543428944,1424.1191847136793,1359.2392566437022,-23617.472802948654,0.0
-523.3385534205465,11023.764298176146,14109.050202154327,11944.420957360026,-2930.0528161675825,1419.2126996981083,1359.8704306869674,-23620.90257888187,0.0
-525.2439844945546,11026.324721181843,14110.64600067881,11945.123585068564,-2929.505004733805,1419.3913338612965,1361.2399592714107,-23637.39646661625,0.0
-525.791795928332,11034.875343126456,14115.60012147123,11951.78068488338,-2923.3957163527666,1422.1184820859705,1366.1821711196194,-23662.202797410995,0.0
-526.5658773021478,11039.42455981565,14118.672629078068,11951.602050720192,-2925.9204125258275,1419.8200558529484,1362.478489469516,-23684.59161253059,0.0
-527.64959122549,11033.005638885084,14117.74373142949,11955.031826653409,-2919.5253094836876,1427.5013248700436,1364.919823033089,-23701.2045897071,0.0
-528.0664042729292,11026.36044801448,14116.314658123983,11952.721491476173,-2917.977146736056,1424.1191847136793,1360.6683299492083,-23701.978671080917,0.0
-528.6618514835567,11026.77726106192,14117.398372047324,11950.69697096004,-2921.954734103048,1421.8207584806569,1356.0595685389512,-23688.04520635223,0.0
-526.8636009074615,11030.218945939347,14119.339529953972,11952.42376787086,-2923.919709898119,1423.5118285588392,1358.4056305488236,-23661.774075419344,0.0
-522.1952947761416,11036.054328603497,14123.436206763088,11955.9726332462,-2919.9421225311266,1432.8246229330537,1378.65083571016,-23633.406970305048,0.0
-517.8485301385606,11043.30687562894,14127.759153512245,11959.807313282641,-2915.714447335671,1436.933208686384,1385.6175680745023,-23606.86193365527,0.0
-515.4429234076252,11043.67605289953,14127.27088679953,11960.998207703897,-2914.249647197528,1435.873312651467,1386.82037143997,-23608.755455785067,0.0
-518.5154310144634,11039.698465532538,14123.733930368404,11960.009765334253,-2913.499383712137,1434.5633287880862,1378.996195092324,-23623.129551449616,0.0
-530.1623784543381,11030.969209424738,14116.671926450359,11952.10222637712,-2920.2398461364405,1423.4880106704138,1361.2280503271982,-23655.92678381098,0.0
-533.1157966190507,11031.25502408584,14116.838651669335,11953.102577690976,-2917.369790581216,1424.4526351516306,1360.037155905943,-23688.485837288095,0.0
-528.387945766668,11036.66168475834,14119.899250331962,11953.257393965738,-2918.667865500384,1427.1202386552418,1363.800382277109,-23702.586027235753,0.0
-525.0296234987287,11042.913880469925,14125.282093116035,11956.91343983899,-2916.881523868501,1429.2757575577136,1367.432610261937,-23703.943646875985,0.0
-525.7679780399069,11041.687259216034,14125.472636223436,11958.711690415086,-2915.7382652240963,1429.6568437725152,1367.5397907598501,-23691.40352862017,0.0
-526.982690349587,11035.816149719247,14120.959146366878,11956.079813744112,-2916.7505254821635,1429.3710291114141,1369.004590897994,-23666.0017506148,0.0
-525.2439844945546,11036.804592088887,14121.48313991223,11956.984893504266,-2915.797809945159,1431.7409090097117,1372.1723700585326,-23637.432193448887,0.0
-521.7308459518522,11040.913177842218,14126.068083434062,11961.48647441661,-2910.4864208263616,1438.1598299402767,1374.5065231241924,-23616.317635360036,0.0
-519.8611417104817,11040.746452623242,14127.592428293268,11962.451098897827,-2910.212515109473,1438.2193746613393,1375.0900613906074,-23611.506421898168,0.0
-520.6828588611477,11039.067291489273,14125.567907777135,11958.151970037095,-2915.511995284058,1435.46840854824,1373.827713304077,-23627.309590868223,0.0
-521.3973955139006,11037.126133582628,14121.495048856443,11954.29347211223,-2919.4657647626245,1436.2305809778434,1375.9951411507614,-23658.16566532294,0.0
-523.803002244836,11037.340494578453,14121.078235809005,11956.687169898953,-2912.2013087929686,1439.3269064731066,1382.6760588540021,-23682.055007413317,0.0
-525.2558934387672,11038.650478441834,14123.126574213562,11956.353719461,-2915.2380895671695,1433.6344311395073,1381.806705926486,-23701.276043372374,0.0
-526.1490642547085,11042.651883697252,14127.83060717752,11959.295228681502,-2913.570837377412,1432.4078098856146,1375.7569622665103,-23699.632609071043,0.0
-527.9830416634413,11042.913880469925,14126.75880219839,11959.045140853037,-2913.5112926563493,1430.3594714810558,1371.5650139036923,-23683.98425637575,0.0
-526.1728821431336,11041.782530769733,14123.329026265175,11956.317992628363,-2916.571891318975,1428.656492458661,1368.9926819537814,-23657.070042455387,0.0
-522.6478346562185,11041.56816977391,14123.0670294925,11957.401706551706,-2915.8097188893717,1429.1685770598008,1373.1608124281743,-23630.29873586557,0.0
-520.1707742600079,11039.710374476752,14123.221845767264,11959.188048183589,-2914.7379139102422,1428.8827623986995,1366.027354844856,-23610.279800644275,0.0
-518.8607903966274,11039.865190751512,14125.651270386625,11960.986298759684,-2910.724599710613,1427.5013248700436,1347.151678267963,-23608.469641123967,0.0
-521.9928427245283,11037.602491351128,14124.65091907277,11958.497329419259,-2910.4745118821493,1429.58539010724,1362.1331300873521,-23624.749167862523,0.0
-525.8870674820324,11037.483401909003,14123.090847380925,11955.389094979784,-2915.559631060908,1430.4785609231815,1371.4459244615668,-23657.070042455387,0.0
-526.8874187958866,11042.080254375049,14124.56755646328,11956.699078843165,-2916.6076181516128,1431.5860927349486,1376.4238631424132,-23686.55658832566,0.0
-527.780589611828,11046.272202737866,14123.198027878838,11957.151618723243,-2916.6909807611005,1428.8470355660618,1373.7919864714393,-23701.109318153398,0.0
-527.673409113915,11050.845237315485,14124.079289750567,11961.605563858737,-2912.7133933941086,1431.3836406833352,1375.1496061116702,-23701.6809474756,0.0
-527.673409113915,11054.215468527638,14128.664233272399,11965.785603277342,-2909.867155727309,1432.7769871562036,1372.636818882822,-23686.020685836094,0.0
-528.6856693719818,11045.117035149247,14127.771062456457,11966.214325268993,-2905.94911308138,1437.1475696822097,1371.3625618520791,-23659.630465461083,0.0
-528.0544953287166,11034.113170696852,14121.673683019631,11965.082975568801,-2901.554712666948,1442.2803246378191,1369.4333128896458,-23631.203815625726,0.0
-526.7802382979737,11038.86483943766,14118.72026485492,11952.29276948452,-2914.702187077605,1428.4778582954727,1366.88479882816,-23616.162819085275,0.0
-524.731899893415,11042.842426804651,14121.876135071245,11950.13725058205,-2922.1690950988736,1424.1310936578916,1368.1590558589028,-23614.352659564967,0.0
-524.6604462281397,11045.760118136726,14128.568961718698,11954.162473725892,-2919.2633127110116,1429.347211222989,1373.0536319302612,-23632.31134743749,0.0
-526.268153696834,11040.377275352652,14125.079641064422,11952.685764643535,-2919.7873062563635,1430.4904698673938,1376.7811314687895,-23657.4630376144,0.0
-527.2923228991133,11038.388481669157,14122.626398556635,11953.043032969912,-2919.2156769341614,1431.943361061325,1378.4126568259092,-23679.04204452754,0.0
-528.0902221613543,11040.996540451706,14124.817644291745,11956.294174739938,-2917.214974306453,1433.6582490279325,1376.4238631424132,-23692.451515710873,0.0
-527.3518676201761,11039.734192365175,14125.889449270875,11959.3905002352,-2914.3091919185904,1433.0151660404545,1367.5874265367001,-23694.428400450157,0.0
-526.8040561863988,11043.926140727994,14130.117124466331,11962.320100511488,-2912.308489290882,1427.620414312169,1361.4066844903864,-23690.51035780423,0.0
-527.1613245127753,11043.99759439327,14127.247068911105,11960.46230521433,-2913.201660106823,1428.37067779756,1357.5362776213074,-23668.192996349906,0.0
-525.9108853704574,11045.641028694601,14125.234457339184,11955.805908027223,-2917.1435206411775,1426.0007978992624,1366.479894724933,-23634.7884078337,0.0
-525.7203422630566,11047.093919888532,14126.770711142604,11956.329901572575,-2916.5123465979123,1429.2876665019262,1372.1723700585326,-23617.365622450743,0.0
-526.6849667442733,11049.84488600163,14133.582627232181,11964.749525130848,-2908.056996207001,1435.8852215956792,1378.257840551146,-23618.973329919438,0.0
-527.6615001697024,11048.689718413014,14135.95250713048,11965.96423744053,-2908.7119881386916,1433.4200701436814,1376.1856842581622,-23638.158639045854,0.0
-528.0544953287166,11046.546108454755,14130.176669187393,11961.808015910348,-2910.212515109473,1430.5023788116064,1367.992330639927,-23664.28686264819,0.0
-528.2331294919048,11044.152410668032,14122.31676600711,11953.698024901601,-2918.0247825129063,1428.072954192246,1364.9079140888764,-23687.914207965892,0.0
-529.6622027974109,11043.509327680555,14121.11396264164,11953.5074817942,-2915.2499985113823,1428.5493119607481,1367.8136964767386,-23702.181123132526,0.0
-529.3049344710345,11041.210901447532,14120.39942598889,11951.590141775981,-2914.1186488111894,1427.8824110848452,1370.5289357572005,-23701.538040145053,0.0
-530.3648305059515,11042.104072263473,14122.73357905455,11954.495924163843,-2911.2009574791145,1434.6943271744242,1374.1135279651783,-23686.04450372452,0.0
-530.1147426774879,11044.581132659683,14124.377013355881,11953.054941914124,-2916.6076181516128,1434.5037840670234,1374.149254797816,-23664.31068053662,0.0
-527.7210448907653,11046.284111682078,14124.198379192692,11953.281211854162,-2918.2867792855823,1434.6466913975742,1376.7215867477269,-23634.716954168427,0.0
-523.8387290774737,11047.832274429711,14125.186821562333,11955.555820198759,-2915.3690879535075,1434.9444150028878,1380.0560911272412,-23606.933387320547,0.0
-520.9091288011862,11049.570980284741,14126.461078593076,11956.949166671628,-2915.2380895671695,1434.753871895487,1380.9016261663323,-23607.243019870075,0.0
-521.4093044581133,11053.25084404642,14129.83130980523,11962.212920013575,-2908.700079194479,1436.1472183683557,1376.7215867477269,-23627.464407142983,0.0
-521.4450312907509,11052.250492732566,14130.510119625345,11963.856354314907,-2905.889568360317,1434.4561482901734,1371.8865553974313,-23652.961456702054,0.0
-524.8271714471153,11051.3335040282,14130.331485462157,11962.09383057145,-2907.9617246533007,1430.6691040305823,1364.0623790497852,-23680.423482056198,0.0
-526.8397830190364,11053.143663548508,14132.796636914154,11963.296633936918,-2906.9375554510216,1431.7051821770742,1365.6939044069047,-23699.894605843718,0.0
-526.2800626410465,11053.715292870711,14133.785079283796,11963.58244859802,-2903.7221405136324,1437.2428412359102,1376.0308679833988,-23698.155899988687,0.0
-526.3038805294716,11051.821770740915,14131.915375042427,11962.51064361889,-2905.4013016476024,1439.3745422499567,1380.1989984577917,-23681.733465919577,0.0
-525.6727064862065,11054.251195360275,14131.474744106561,11962.3320094557,-2905.1393048749264,1443.9952126044266,1385.9986542893039,-23653.890354350635,0.0
-524.3150868459757,11050.618967375447,14127.175615245831,11959.092776629888,-2908.700079194479,1442.125508363056,1378.5079283796094,-23625.034982523626,0.0
-522.1714768877165,11053.369933488546,14131.498561994986,11961.498383360824,-2907.1638253910596,1441.2561554355398,1379.2820097534252,-23601.229003042736,0.0
-520.0874116505202,11058.085875396715,14137.226764161223,11967.071769252296,-2903.5673242388693,1443.2092222863982,1389.285522891968,-23600.002381788843,0.0
-520.6709499169351,11061.134565115128,14139.799096111134,11971.275626559327,-2899.839824700341,1447.0915380996898,1391.1195003007008,-23620.045134898563,0.0
-521.7427548960646,11062.789908360675,14140.025366051172,11971.811529048891,-2898.208299343222,1445.9601883994974,1388.618622016065,-23648.257423738098,0.0
-524.5294478418016,11061.301290334104,14135.047427370326,11966.333414711118,-2902.5550639808025,1444.269118321315,1381.2588944927086,-23673.182843974966,0.0
-526.0895195336457,11058.002512787229,14134.118529721747,11966.702591981708,-2900.2209109151427,1447.853710529293,1383.3786865625427,-23692.118065272924,0.0
-527.4233212854514,11052.67921472422,14130.426757015855,11964.356529971834,-2901.721437885924,1443.292584895886,1383.4382312836053,-23694.559398836496,0.0
-528.7571230372571,11054.572736854014,14134.666341155524,11970.191912635986,-2894.79043235422,1448.0799804693315,1389.3807944456682,-23674.695279889962,0.0
-527.9711327192288,11056.311442709046,14134.975973705052,11968.548478334653,-2899.387284820264,1446.7104518848882,1392.8224793230954,-23641.147784043205,0.0
-526.613513078998,11058.252600615691,14133.773170339584,11966.166689492142,-2902.971877028242,1442.5065945778576,1389.7856985488952,-23620.795398383954,0.0
-524.7914446144777,11059.753127586473,14131.784376656087,11964.928159294037,-2903.424416908319,1438.6480966529912,1383.450140227818,-23610.029712815813,0.0
-523.9220916869614,11056.478167928022,14128.604688551337,11960.78384670807,-2904.067499895797,1439.0053649793676,1381.2708034369214,-23603.22970567044,0.0
-522.8145598751943,11060.300939020251,14134.7377948208,11964.52325519081,-2900.2804556362053,1445.9840062879225,1384.7839419796237,-23618.627970537273,0.0
-521.8142085613399,11063.409173459728,14138.322387028777,11967.6433985745,-2898.3392977295593,1447.270172262878,1386.2011063409172,-23646.99507565157,0.0
-523.6243680816477,11057.502337130301,14132.808545858368,11960.962480871258,-2906.5088334593697,1441.9111473672301,1384.2242216016339,-23674.469009949924,0.0
-526.2205179199838,11054.656099463502,14130.295758629518,11960.212217385868,-2906.7231944551954,1443.399765393799,1386.7846446073322,-23693.987769514293,0.0
-526.6016041347854,11053.322297711697,14130.414848071643,11961.164932922871,-2907.3424595542483,1442.018327865143,1383.2595971204173,-23690.915261907456,0.0
-525.5059812672308,11057.58569973979,14134.916428983988,11964.511346246598,-2907.6401831595617,1442.8876807926592,1380.246634234642,-23676.160080028105,0.0
-523.5410054721598,11059.086226710571,14137.572123543387,11972.764244585895,-2896.7315902608652,1451.4740295699085,1385.677112795565,-23655.748149647792,0.0
-524.1245437385749,11058.216873783054,14138.703473243579,11970.584907794999,-2898.0058472916085,1444.9241102530054,1388.5828951834276,-23631.227633514147,0.0
-522.4572915488177,11057.811969679828,14137.202946272797,11967.607671741862,-2900.911629679471,1442.6375929641956,1383.5215938930933,-23607.231110925863,0.0
-522.5763809909432,11060.408119518164,14139.156013123657,11968.548478334653,-2899.839824700341,1443.7332158317504,1381.5923449306601,-23608.267189072354,0.0
-523.1718282015709,11061.372743999382,14140.847083201837,11968.881928772604,-2901.2093532847844,1439.8509000184588,1372.25573266802,-23626.333057442793,0.0
-524.0530900732996,11060.181849578126,14139.894367664834,11967.702943295562,-2904.3890413895356,1435.1587759987137,1377.936299057407,-23645.68509178819,0.0
-525.2916202714049,11060.181849578126,14141.08526208609,11971.89489165838,-2899.339649043414,1440.6011635038494,1379.3296455302755,-23672.146765828475,0.0
-526.0537927010081,11065.207424035823,14146.396651204886,11976.170202630687,-2896.2314146039384,1442.4470498567948,1378.8175609291359,-23694.714215111257,0.0
-525.7441601514818,11072.400426340202,14152.589302195413,11980.278788384016,-2893.3613590487134,1442.8757718484467,1373.8634401367146,-23695.7979290346,0.0
-525.5893438767185,11065.38605819901,14141.680709296717,11971.01362978665,-2898.3273887853475,1443.1973133421855,1378.4483836585468,-23677.44624600306,0.0
-524.3627226228258,11056.775891533336,14132.189280759314,11963.391905490618,-2902.1382509333635,1443.316402784311,1378.2340226627207,-23653.795082796933,0.0
-522.5763809909432,11054.2750132487,14126.913618473154,11955.341459202933,-2910.5102387147863,1437.2428412359102,1365.8368117374553,-23624.54671581091,0.0
-520.3136815905586,11056.51389476066,14130.91502372857,11960.795755652282,-2905.94911308138,1442.3041425262443,1384.6291257048606,-23601.514817703835,0.0
-522.9336493173198,11057.502337130301,14131.879648209788,11965.154429234075,-2901.7809826069865,1447.960891027206,1392.5843004388444,-23605.563858736103,0.0
-524.624719395502,11058.38359900203,14130.426757015855,11962.879820889479,-2902.6979713113533,1449.104149671611,1395.942622706784,-23623.28436772438,0.0
-524.1364526827874,11064.052256447205,14133.868441893283,11960.617121489095,-2907.0209180605093,1449.3304196116492,1395.2280860540307,-23648.07878957491,0.0
-522.0881142782287,11060.789205732965,14131.677196158174,11965.761785388915,-2901.84052732805,1454.4155387904084,1391.7268564555409,-23672.75412198332,0.0
-522.8979224846821,11065.6599639159,14138.250933363503,11976.432199403362,-2885.977813636932,1460.3581019524713,1395.621081213045,-23693.451867024727,0.0
-524.3031779017631,11064.433342662007,14139.144104179444,11974.121864226126,-2891.7179247473814,1452.3910182742748,1393.4893801989986,-23693.40423124788,0.0
-525.6250707093562,11055.966083326883,14132.713274304666,11967.9292132356,-2896.398139822914,1448.4729756283457,1387.8207227538242,-23674.96918560685,0.0
-527.1494155685627,11056.406714262748,14130.43866596007,11959.926402724766,-2901.2808069500597,1446.3055477816613,1393.155929761047,-23655.617151261456,0.0
-526.8040561863988,11060.372392685525,14129.79558297259,11955.639182808249,-2905.651389476066,1446.257912004811,1394.6088209549782,-23631.5610839521,0.0
-526.7564204095486,11063.671170232403,14132.879999523642,11959.807313282641,-2907.4734579405863,1442.5065945778576,1389.5356107204316,-23600.18101595203,0.0
-524.731899893415,11066.21968429389,14140.084910772235,11966.142871603717,-2904.2937698358355,1440.7440708344,1387.6301796464234,-23594.667174781618,0.0
-525.1844397734918,11056.954525696523,14134.999791593475,11964.463710469747,-2901.0545370100212,1446.1626404511107,1382.366426304476,-23624.22517431717,0.0
-527.2327781780506,11054.668008407714,14132.653729583604,11962.725004614715,-2901.84052732805,1444.5072972055661,1376.3881363097755,-23651.389476065997,0.0
-527.8520432771032,11057.942968066167,14133.832715060646,11965.321154453051,-2900.983083344746,1443.7689426643879,1387.1300039894963,-23676.076717418615,0.0
-527.5185928391518,11058.776594161045,14132.332188089864,11964.070715310734,-2903.3291453546185,1445.1384712488314,1391.298134463889,-23698.346443096085,0.0
-525.6012528209312,11068.387112140574,14139.239375733145,11971.597168053067,-2896.7911349819283,1451.4978474583336,1388.332807354964,-23699.94224162057,0.0
-524.1840884596377,11071.400075026348,14141.69261824093,11972.72851775326,-2899.315831154989,1445.4600127425701,1381.806705926486,-23683.18635711351,0.0
-524.5770836186517,11066.96994777928,14139.632370892159,11971.573350164641,-2893.9448973151284,1446.6270892754003,1383.8907711636825,-23662.190888466783,0.0
-522.5168362698805,11066.386409512865,14143.14550943486,11972.811880362746,-2893.3018143276504,1444.3882077634407,1380.0203642946035,-23639.051809861798,0.0
-521.0401271875241,11067.76784704152,14147.06355208079,11978.004180039417,-2889.1217749090456,1451.6288458446716,1384.8792135333242,-23614.817108389256,0.0
-520.9805824664614,11068.375203196361,14143.490868817025,11975.90820585801,-2889.0145944111323,1454.4869924556838,1390.7026872532615,-23610.601342138012,0.0
-523.1480103131457,11069.101648793327,14143.133600490648,11973.466872294437,-2891.813196301082,1452.9031028754146,1392.4652109967192,-23625.273161407877,0.0
-526.1252463662834,11068.387112140574,14144.87230634568,11973.657415401836,-2893.3375411602883,1452.1647483342363,1391.512495459715,-23650.770210966948,0.0
-527.328049731751,11067.01758355613,14143.776683478125,11974.22904472404,-2894.087804645679,1453.7248200260804,1394.8231819508042,-23676.04099058598,0.0
-527.5781375602145,11066.719859950816,14143.395597263323,11974.074228449277,-2893.801989984578,1453.8200915797809,1398.5864083219703,-23692.403879934023,0.0
-528.0187684960789,11066.74367783924,14142.335701228407,11975.562846475845,-2890.7533002661644,1456.440059306542,1400.9681971644802,-23691.189167624343,0.0
-527.5781375602145,11069.863821222929,14143.300325709624,11977.337279163514,-2888.6930529173933,1457.4523195646088,1400.4799304517658,-23679.518402296042,0.0
-527.304231843326,11071.78116124115,14146.08701865536,11978.647263026896,-2888.5144187542055,1457.6071358393722,1401.5398264866828,-23654.068988513824,0.0
-526.0776105894332,11074.234403748937,14148.468807497871,11978.837806134297,-2888.0618788741285,1458.7980302606272,1401.1230134392433,-23626.094878558542,0.0
-521.6713012307894,11076.64001047987,14145.408208835246,11975.753389583246,-2890.0506725576247,1457.0593244055947,1395.3233576077312,-23599.978563900415,0.0
-518.3844326281254,11078.092901673801,14145.670205607923,11975.610482252696,-2891.122477536754,1457.8214968351979,1394.8589087834418,-23595.429347211222,0.0
-519.0394245598155,11070.56644893147,14144.110133916078,11974.288589445101,-2894.194985143592,1457.2736854014208,1401.1349223834561,-23614.888562054533,0.0
-522.1000232224412,11060.872568342455,14135.773872967291,11967.762488016626,-2900.2209109151427,1452.069476780536,1394.3825510149397,-23643.612935495203,0.0
-523.4814607510971,11062.742272583824,14136.012051851541,11966.976497698597,-2899.661190537153,1449.0922407273981,1389.3569765572433,-23668.76462567211,0.0
-523.8506380216861,11066.565043676053,14139.144104179444,11967.571944909223,-2899.7564620908533,1448.8778797315724,1391.9293085071542,-23688.021388463807,0.0
-523.3266444763339,11067.06521933298,14140.513632763887,11971.370898113028,-2897.755759463145,1447.401170649216,1373.6848059735264,-23683.900893766262,0.0
-524.886716168178,11068.077479591046,14138.667746410942,11970.823086679251,-2895.3263348437845,1442.339869358882,1376.8883119667025,-23674.05219690248,0.0
-523.3623713089717,11064.064165391417,14134.249528108085,11966.440595209031,-2899.4230116529016,1440.3272577869607,1390.6431425321987,-23644.684740474335,0.0
-521.099671908587,11065.707599692749,14137.238673105436,11972.406976259519,-2891.0510238714787,1451.6050279562467,1395.9545316509964,-23619.23532669211,0.0
-517.967619580686,11075.66347705444,14147.86145134303,11982.922573999202,-2881.8573189393896,1459.2148433080665,1394.5730941223405,-23612.113778053004,0.0
-516.4551836656921,11078.807438326556,14150.255149129754,11984.55409935632,-2881.9287726046646,1459.3815685270422,1393.2273834263224,-23618.401700597235,0.0
-513.8233069947183,11087.250879773253,14157.817328704723,11989.07949815709,-2879.8089805348304,1462.3468956359673,1396.0378942604843,-23626.55932738283,0.0
-512.1441458607487,11095.325143949363,14165.605778219731,11994.438523052739,-2874.1998678107193,1467.3367432610262,1400.765745112867,-23647.23325453582,0.0
-516.2527316140787,11090.930743534933,14156.578798506618,11983.089299218176,-2884.0962004513485,1461.9181736443154,1399.6463043568872,-23674.826278276298,0.0
-522.6954704330686,11076.628101535658,14143.538504593875,11974.014683728214,-2890.908116540928,1459.8460173513317,1399.1937644768102,-23697.417545447508,0.0
-528.0902221613543,11066.74367783924,14135.750055078866,11970.442000464449,-2892.1585556832456,1457.4404106203963,1391.881672730304,-23700.990228711275,0.0
-529.2215718615466,11060.384301629738,14128.783322714524,11963.272816048493,-2900.399545078331,1449.5924163843254,1389.1307066172049,-23684.78215563799,0.0
-524.7795356702652,11060.598662625565,14130.867387951721,11965.416426006752,-2897.577125299956,1454.7847160609977,1398.53877254512,-23659.630465461083,0.0
-519.3014213324918,11069.113557737539,14142.692969554784,11974.633948827266,-2889.4552253469965,1461.5966321505766,1403.2428055090775,-23629.97719437183,0.0
-520.9210377453986,11067.589212878333,14142.716787443209,11971.692439606766,-2894.671342912094,1455.2968006621372,1401.9447305899096,-23611.80414550348,0.0
-523.6005501932226,11063.849804395591,14138.536748024604,11965.821330109979,-2898.648930279086,1457.1784138477203,1401.5993712077454,-23613.20940092056,0.0
-524.6128104512894,11061.50374238572,14133.677898785883,11961.141115034447,-2901.673802109074,1454.451265623046,1405.6603211842255,-23628.536212122115,0.0
-524.7557177818401,11066.1363216844,14134.237619163872,11961.867560631412,-2902.233522487064,1457.1784138477203,1398.9555855925591,-23657.45112867019,0.0
-522.4930183814554,11074.615489963737,14141.764071906204,11969.608374369569,-2899.7207352582154,1458.1073114962992,1397.4312407333528,-23676.96988823456,0.0
-525.5059812672308,11069.16119351439,14140.66844903865,11974.610130938841,-2891.1582043693916,1456.3805145854794,1407.1727570992193,-23695.297753377672,0.0
-528.149766882417,11065.207424035823,14138.965470016255,11973.562143848136,-2890.5508482145515,1450.8904913034933,1397.9433253344923,-23702.204941020955,0.0
-528.042586384504,11070.352087935644,14143.28841676541,11977.230098665603,-2884.548740331426,1454.0463615198194,1388.2613536896886,-23692.43960676666,0.0
-527.3518676201761,11072.257519009652,14141.27580519349,11974.586313050417,-2887.7046105477516,1451.5573921793964,1387.2371844874092,-23669.217165552185,0.0
-526.0418837567955,11072.936328829768,14141.144806807151,11972.69279092062,-2893.4209037697765,1450.902400247706,1390.32160103846,-23641.421689760093,0.0
-523.7196396353481,11076.997278806248,14144.800852680404,11975.419939145295,-2889.7886757849483,1455.7374315980016,1397.9909611113426,-23619.890318623802,0.0
-523.6839128027104,11073.87713542256,14143.014511048521,11975.979659523284,-2890.0863993902617,1456.2733340875664,1401.694642761446,-23616.93690045909,0.0
-522.9336493173198,11074.901304624836,14147.015916303939,11980.612238821966,-2885.0131891557153,1457.1665049035078,1397.609874896541,-23635.324310323267,0.0
-524.7199909492024,11072.686241001304,14144.407857521392,11977.337279163514,-2888.1095146509783,1454.8918965589105,1391.9531263955794,-23660.952358268678,0.0
-526.827874074824,11073.09114510453,14142.383337005256,11974.32431627774,-2892.7897297265113,1451.9742052268355,1391.036137691213,-23684.63924830744,0.0
-528.125948993992,11073.567502873033,14142.63342483372,11974.22904472404,-2892.384825623284,1449.7234147706636,1390.6431425321987,-23701.02595554391,0.0
-527.8877701097409,11074.317766358423,14143.586140370726,11975.288940758957,-2891.575017416831,1451.0929433551069,1394.5254583454905,-23701.645220642964,0.0
-527.780589611828,11067.636848655182,14139.549008282671,11972.788062474321,-2892.992181778124,1451.4263937930582,1394.0371916327758,-23690.415086250527,0.0
-526.9469635169494,11067.339125049868,14140.47790593125,11973.050059246996,-2892.1942825158835,1451.771753175222,1395.704443822533,-23665.799298563186,0.0
-524.0769079617246,11072.769603610792,14147.563727737717,11978.266176812094,-2887.954698376215,1454.951441279973,1398.6221351546078,-23636.658112075074,0.0
-521.1592166296497,11078.021448008527,14151.386498829947,11978.587718305835,-2887.6927016035393,1454.8204428936353,1395.0613608350552,-23616.05563858736,0.0
-522.6240167677934,11078.03335695274,14147.897178175668,11976.182111574899,-2890.4436677166386,1455.6302511000888,1399.4557612494864,-23609.767716043134,0.0
-523.0527387594453,11069.31600978915,14140.644631150224,11971.180355005627,-2893.7900810403653,1455.8803389285522,1401.3611923234944,-23631.906443334265,0.0
-522.98128509417,11073.22214349087,14142.002250790456,11973.824140620813,-2891.860832077932,1459.155298587004,1403.8025258870673,-23664.28686264819,0.0
-523.9816364080242,11080.165057966786,14147.492274072441,11978.57580936162,-2887.085345448699,1459.8341084071192,1399.0627660904722,-23685.508601234957,0.0
-527.673409113915,11074.639307852163,14147.623272458779,11978.468628863708,-2886.537534014922,1459.3220238059794,1407.2799375971324,-23709.266944938994,0.0
-527.8163164444657,11071.316712416861,14143.276507821198,11973.621688569201,-2892.4562792885595,1451.2596685740825,1393.4774712547858,-23711.06519551509,0.0
-524.9819877218785,11074.079587474173,14142.978784215886,11972.847607195385,-2895.088155959533,1450.8309465824307,1390.4645083690104,-23693.213688140477,0.0
-523.2670997552713,11080.331783185762,14145.074758397293,11976.860921395013,-2886.025449413782,1457.023597572957,1389.4879749435813,-23668.335903680458,0.0
-522.9455582615323,11072.186065344376,14137.214855217011,11967.119405029147,-2896.3862308787016,1434.8134166165498,1359.8347038543297,-23637.658463388925,0.0
-522.3620199951173,11067.636848655182,14136.726588504296,11968.53656939044,-2896.124234106025,1437.7430168928374,1378.9247414270487,-23618.234975378255,0.0
-523.3861891973967,11070.864172536783,14135.154607868239,11971.454260722516,-2887.5497942729885,1462.989978623445,1408.2088352457113,-23627.44058925456,0.0
-521.921389059253,11071.388166082135,14134.773521653437,11969.46546703902,-2890.646119768252,1462.1563525285665,1406.0533163432397,-23644.279836371104,0.0
-522.743106209919,11071.066624588397,14138.786835853069,11970.370546799173,-2894.0758957014664,1458.0477667752364,1403.8620706081301,-23666.037477447437,0.0
-523.1003745362955,11073.69850125937,14145.062849453081,11974.348134166165,-2890.2888514418755,1461.132183326287,1406.8750334939054,-23693.332777582604,0.0
-522.9931940383825,11072.805330443429,14145.253392560482,11973.776504843961,-2892.1347377948205,1461.5966321505766,1406.7202172191423,-23716.698126127627,0.0
-523.4695518068845,11073.65086548252,14147.027825248153,11977.134827111902,-2887.347342221375,1464.347598263676,1410.2929004829077,-23718.758373476398,0.0
-524.4937210091639,11079.700609142497,14151.82712976581,11982.434307286487,-2883.4888442965084,1464.7167755342648,1409.0424613405899,-23701.81194586194,0.0
-524.1364526827874,11076.485194205108,14144.96757789938,11977.432550717216,-2887.4545227192884,1458.619396097439,1397.9195074460672,-23679.887579566635,0.0
-524.8033535586902,11073.746137036222,14145.158121006782,11977.694547489893,-2887.7641552688146,1459.071935977516,1394.8112730065916,-23650.770210966948,0.0
-523.7315485795606,11071.816888073789,14143.907681864463,11975.67002697376,-2888.085696762553,1465.324131689105,1406.2676773390654,-23629.953376483405,0.0
-523.9578185195992,11074.651216796374,14145.932202380598,11977.158645000327,-2887.335433277163,1468.9920865065708,1408.9471897868893,-23628.964934113763,0.0
-523.9220916869614,11075.365753449129,14145.75356821741,11975.58666436427,-2894.587980302606,1465.8481252344573,1405.0053292525351,-23649.877040151005,0.0
-525.1487129408541,11077.533181295812,14149.945516580226,11983.625201707742,-2883.953293120798,1471.0285159669168,1409.4711833322415,-23673.599657022405,0.0
-527.6138643928523,11079.99833274781,14153.970739724069,11987.698060628434,-2879.320713822116,1464.0736925467872,1410.0309037102315,-23702.24066785359,0.0
-527.8163164444657,11085.250177145545,14156.554980618193,11987.531335409458,-2879.427894320029,1461.322726433688,1411.293251796762,-23723.009866560278,0.0
-528.4117636550932,11086.524434176288,14157.864964481574,11988.1386915643,-2878.3799072293245,1458.8933018143275,1404.4694267629702,-23722.521599847565,0.0
-531.4247265408685,11083.833012784251,14153.696834007182,11984.661279854234,-2880.1186130843566,1458.8575749816898,1396.6690683037496,-23711.970275275246,0.0
-531.4009086524435,11084.595185213853,14152.696482693325,11982.851120333926,-2882.321767763679,1457.2736854014208,1389.76188066047,-23681.245199206864,0.0
-528.4474904877308,11081.344043443829,14149.481067755938,11982.350944676999,-2883.0958491374945,1456.8330544655562,1391.6315849018404,-23650.162854812104,0.0
-524.3746315670385,11081.141591392216,14147.456547239804,11981.684043801095,-2884.548740331426,1461.2512727684127,1401.1825581603064,-23632.454254768043,0.0
-522.9931940383825,11084.511822604367,14149.4453409233,11983.982470034118,-2881.357143282462,1464.5738682037143,1406.1366789527274,-23634.407321618903,0.0
-523.6005501932226,11085.023907205506,14152.5773932512,11986.602437760881,-2877.9630941818855,1463.2996111729713,1407.8039311424845,-23649.99612959313,0.0
-524.1602705712125,11079.652973365646,14147.206459411342,11980.62414776618,-2881.5595953340758,1460.3819198408964,1406.2557683948528,-23676.37444102393,0.0
-523.2909176436963,11078.569259442304,14145.670205607923,11979.278437070161,-2884.548740331426,1459.071935977516,1401.9923663667598,-23707.123334980737,0.0
-526.0061569241578,11084.595185213853,14152.875116856514,11986.923979254618,-2880.1305220285694,1459.572111634443,1401.4207370445574,-23727.678172691598,0.0
-529.4835686342227,11083.690105453701,14151.088775224633,11984.87564085006,-2881.4643237803753,1460.6200987251475,1403.2189876206526,-23732.322660934497,0.0
-530.6982809439029,11081.67749388178,14142.39524594947,11977.82554587623,-2884.5368313872136,1461.0726386052243,1405.2911439136365,-23718.115290488924,0.0
-529.9361085142996,11079.938788026748,14141.049535253453,11977.051464502414,-2886.037358357995,1460.1437409566456,1404.767150368284,-23690.367450473677,0.0
-528.1854937150547,11078.855074103405,14142.692969554784,11974.753038269393,-2890.5508482145515,1455.9279747054024,1398.479227824057,-23663.727142270203,0.0
-527.1255976801376,11079.402885537182,14150.731506898255,11978.325721533158,-2890.2769424976627,1454.9871681126108,1394.5730941223405,-23637.76564388684,0.0
-526.6254220232105,11079.760153863559,14152.327305422737,11979.623796452326,-2887.990425208853,1458.6551229300767,1401.7422785382962,-23639.242352969195,0.0
-525.2320755503421,11077.271184523135,14146.849191084963,11977.432550717216,-2887.3711601098007,1461.8705378674654,1405.8985000684766,-23658.53484259353,0.0
-527.8163164444657,11072.471880005478,14143.669502980212,11976.015386355923,-2886.5732608475596,1463.2996111729713,1405.8270464032012,-23684.246253148423,0.0
-526.8755098516741,11073.472231319332,14145.110485229932,11977.313461275091,-2886.7042592338976,1464.2165998773378,1408.0897458035856,-23707.218606534436,0.0
-526.0657016452205,11077.306911355774,14147.57563668193,11980.350242049291,-2884.7154655504014,1466.9794749346495,1411.745791676839,-23722.83123239709,0.0
-527.1375066243502,11077.640361793725,14148.444989609447,11981.219594976807,-2886.3588998517334,1466.6936602735484,1410.3048094271203,-23723.93876420886,0.0
-526.9350545727368,11079.402885537182,14149.838336082314,11982.39858045385,-2882.869579197456,1466.3006651145342,1408.1016547477982,-23711.38673700883,0.0
-526.4467878600223,11079.58151970037,14149.326251481174,11979.528524898624,-2885.048915988353,1463.7164242204105,1413.9370374119483,-23693.83295323953,0.0
-523.6481859700729,11081.427406053315,14150.636235344557,11981.350593363146,-2885.108460709416,1463.1090680655705,1409.3401849459037,-23667.609458083494,0.0
-520.9686735222489,11082.61830047457,14151.839038710023,11984.577917244747,-2882.428948261592,1465.4074942985928,1406.9345782149685,-23643.12466878249,0.0
-521.2902150159878,11081.90376382182,14150.076514966566,11984.55409935632,-2881.178509119274,1466.2411203934714,1402.432997302624,-23644.89910147016,0.0
-521.6355743981518,11080.069786413085,14148.564079051572,11983.208388660301,-2883.2506654122576,1461.79908420219,1398.0147789997677,-23664.78703830512,0.0
-522.6240167677934,11080.3675100184,14148.409262776808,11982.374762565425,-2884.012837841861,1461.6561768716394,1405.7436837937132,-23685.830142728693,0.0
-522.4572915488177,11080.736687288989,14149.39770514645,11983.10120816239,-2882.119315712065,1466.4435724450848,1409.1734597269278,-23703.12192972532,0.0
-522.0881142782287,11083.368563959963,14151.279318332034,11982.994027664477,-2883.750841069185,1467.07474648835,1410.8764387493227,-23727.844897910574,0.0
-523.8625469658987,11084.892908819169,14151.946219207935,11982.696304059162,-2885.5967274221302,1465.6933089596941,1411.6862469557761,-23743.838609988034,0.0
-523.9459095753865,11083.904466449527,14149.159526262198,11980.409786770353,-2885.977813636932,1467.4558327031518,1413.436861755021,-23730.738771354223,0.0
-522.7550151541315,11087.298515550103,14152.005763928999,11981.862677964285,-2885.45382009158,1468.110824634842,1408.959098731102,-23700.632960384897,0.0
-519.5515091609553,11091.311829749733,14157.281426215157,11987.185976027295,-2880.7616960718346,1471.3262395722309,1411.507612792588,-23674.40946522886,0.0
-519.110878225091,11084.535640492792,14150.088423910778,11983.398931767704,-2882.631400313205,1470.0281646530627,1410.6144419766465,-23652.723277817804,0.0
-518.5035220702508,11082.403939478745,14147.563727737717,11980.659874598816,-2887.2877975003125,1464.9073186416658,1409.5902727743671,-23643.732024937326,0.0
-519.1227871693035,11083.904466449527,14151.672313491046,11983.803835870931,-2885.108460709416,1464.0617836025747,1407.0298497686688,-23661.369171316117,0.0
-520.1350474273703,11085.9647137983,14157.71014820681,11988.972317659178,-2881.2142359519116,1465.5504016291436,1410.0904484312941,-23691.320166010682,0.0
-520.4446799768966,11090.573475208554,14159.472671950267,11991.890008991251,-2878.308453564049,1466.7889318272487,1410.1261752639318,-23717.18639284034,0.0
-520.9091288011862,11095.825319606289,14158.948678404915,11993.831166897899,-2874.4737735276076,1469.2064475023967,1409.0305523963773,-23738.896398139823,0.0
-523.5767323047975,11088.001143258645,14151.49367932786,11987.555153297884,-2879.642255315855,1464.954954418516,1409.1377328942901,-23740.05156572844,0.0
-525.7798869841193,11078.152446394864,14140.037274995386,11978.230449979455,-2887.0972543929115,1463.287702228759,1412.5198730506547,-23729.38115171399,0.0
-526.3515163063217,11079.819698584623,14145.062849453081,11980.921871371493,-2886.454171405434,1464.4547787615888,1415.7471969322557,-23709.124037608446,0.0
-528.1021311055669,11084.15455427799,14153.851650281944,11986.399985709266,-2883.179211746982,1463.6211526667103,1412.4960551622294,-23682.031189524892,0.0
-525.0058056103036,11084.214098999053,14154.744821097884,11987.54324435367,-2880.83314973711,1464.6215039805645,1407.4347538718955,-23656.033964308892,0.0
-523.2313729226335,11081.939490654455,14153.077568908127,11986.769162979856,-2880.678333462347,1467.872645750591,1411.0788908009358,-23654.89070566449,0.0
-523.5529144163725,11085.011998261294,14157.483878266772,11990.913475565823,-2879.61843742743,1469.3493548329473,1412.0554242263652,-23675.255000267953,0.0
-523.4338249742469,11086.548252064713,14156.650252171892,11990.496662518384,-2876.641201374292,1470.0996183183381,1410.8049850840473,-23703.18147444638,0.0
-524.9581698334533,11083.392381848387,14152.982297354427,11983.922925313056,-2883.1315759701324,1465.7647626249695,1407.4347538718955,-23731.441399062765,0.0
-524.6366283397145,11083.559107067364,14151.82712976581,11983.089299218176,-2884.6916476619767,1466.4554813892973,1410.1499931523572,-23746.363306161093,0.0
-521.4450312907509,11084.404642106454,14153.946921835644,11987.221702859933,-2879.8447073674683,1469.2421743350342,1415.5685627690677,-23745.19622962826,0.0
-519.110878225091,11087.846326983881,14156.840795279295,11991.223108115351,-2878.522814559875,1470.444977700502,1419.1174281444078,-23732.58465770717,0.0
-519.6586896588683,11087.75105543018,14156.25725701288,11993.438171738884,-2875.962391554177,1472.0526851691964,1414.9492976700149,-23708.195139959866,0.0
-520.9448556338237,11085.214450312908,14152.910843689153,11991.639921162789,-2873.116153887377,1467.289107484176,1411.4957038483751,-23684.44870520004,0.0
-520.1231384831577,11088.751406744035,14156.019078128627,11992.747452974558,-2873.3900596042654,1467.765465252678,1409.0543702848024,-23671.205959235685,0.0
-520.1350474273703,11092.93144616264,14160.234844379871,11993.79544006526,-2875.486033785675,1467.5034684800019,1407.4347538718955,-23672.635032541188,0.0
-521.838026449765,11087.917780649155,14157.80541976051,11991.092109729012,-2878.7848113325513,1465.800489457607,1408.4231962415372,-23688.878832447106,0.0
-522.5525631025181,11084.80954620968,14157.221881494095,11990.889657677399,-2879.0110812725898,1467.551104256852,1411.9363347842398,-23712.482359876387,0.0
-524.255542124913,11087.858235928094,14157.507696155197,11989.07949815709,-2881.273780672974,1469.6589873824735,1413.9965821330109,-23738.348586706044,0.0
-523.9220916869614,11091.990639569847,14158.770044241728,11989.960760028818,-2880.035250474869,1474.2796577369431,1417.0571807956364,-23758.35561298313,0.0
-522.9217403731072,11088.108323756558,14153.613471397692,11985.85217427549,-2881.357143282462,1475.5300968792612,1420.439320952001,-23757.04562911975,0.0
-522.743106209919,11088.275048975534,14154.840092651586,11986.45953043033,-2881.631048999351,1475.613459488749,1423.5713732799018,-23741.135279651782,0.0
-521.8737532824027,11088.013052202858,14154.280372273595,11987.221702859933,-2882.6671271458426,1474.5535634538319,1425.631620628673,-23719.0441881375,0.0
-518.7297920102893,11088.846678297736,14156.197712291816,11991.44937805539,-2877.1294680870064,1479.4005037483403,1431.490821181248,-23690.212634198913,0.0
-515.5858307381759,11091.740551741384,14159.282128842868,11993.902620563174,-2872.925610779976,1479.5076842462531,1425.9055263455618,-23667.621367027707,0.0
-516.1098242835282,11093.479257596418,14161.925914458054,11993.985983172663,-2873.675874265367,1473.7675731358036,1404.9338755872598,-23669.348163938525,0.0
-517.7413496406475,11091.514281801346,14158.59141007854,11990.85393084476,-2878.344180396687,1471.2071501301052,1405.8627732358389,-23686.44940782775,0.0
-519.9802311526071,11088.382229473445,14154.447097492572,11988.6150493328,-2880.356791968608,1471.8978688944333,1412.329329943254,-23711.93454844261,0.0
-521.0639450759493,11086.857884614239,14152.684573749115,11988.186327341149,-2880.952239179235,1470.9927891342793,1416.2354636449707,-23742.75489606469,0.0
-523.9816364080242,11083.725832286338,14149.540612477,11985.232909176437,-2883.8222947344602,1466.1458488397711,1415.4852001595798,-23765.096075407433,0.0
-523.0884655920829,11084.559458381218,14151.946219207935,11987.757605349498,-2881.023692844511,1464.3952340405262,1412.4246014969542,-23767.53740897101,0.0
-523.8506380216861,11091.430919191858,14156.757432669807,11992.723635086131,-2877.570099022871,1462.3945314128175,1401.349283379282,-23749.816899982732,0.0
-522.8383777636194,11091.34755658237,14157.305244103583,11994.140799447425,-2874.735770300284,1462.8708891813196,1393.2392923705347,-23722.414419349654,0.0
-521.2902150159878,11088.251231087108,14155.590356136976,11990.48475357417,-2877.9273673492476,1462.2039883054167,1392.941568765221,-23700.549597775407,0.0
-520.9686735222489,11087.679601764905,14156.95988472142,11991.723283772277,-2877.867822628185,1462.787526571832,1401.0634687181807,-23684.16289053894,0.0
-522.4811094372428,11087.774873318605,14155.316450420089,11990.437117797323,-2878.165546233499,1466.8961123251618,1408.2207441899238,-23682.85290667556,0.0
-519.1466050577286,11092.121637956187,14155.852352909653,11991.330288613262,-2879.3326227663288,1471.5406005680566,1413.4964064760838,-23700.156602616393,0.0
-518.1819805765119,11091.073650865483,14155.268814643237,11992.937996081957,-2874.6881345234337,1475.3871895487107,1416.0687384259948,-23727.737717412663,0.0
-520.3732263116214,11087.679601764905,14154.411370659935,11989.543946981381,-2876.617383485867,1469.5994426614109,1413.0081397633692,-23755.545102148968,0.0
-522.9336493173198,11088.275048975534,14156.82888633508,11992.29491309448,-2874.2713214759947,1472.3742266629351,1411.1146176335735,-23773.217975360392,0.0
-521.9690248361031,11087.429513936442,14154.089829166196,11989.97266897303,-2877.6296437439337,1470.0519825414879,1407.5657522582335,-23777.862463603287,0.0
-520.6947678053602,11088.72758885561,14153.375292513441,11990.556207239448,-2878.344180396687,1469.8971662667245,1413.6631316950595,-23763.988543595668,0.0
-519.110878225091,11092.979081939491,14157.698239262598,11993.569170125222,-2875.819484223626,1469.6828052708988,1414.1990341846245,-23735.276079099207,0.0
-517.8485301385606,11093.824616978582,14159.05585890283,11994.605248271715,-2875.3669443435488,1467.872645750591,1409.9118142681061,-23708.147504183016,0.0
-514.0138501021191,11090.633019929617,14157.9840539237,11994.760064546477,-2874.545227192883,1471.7787794523076,1416.2830994218207,-23691.46307334123,0.0
-515.1094729696739,11092.538451003626,14159.556034559757,11995.61750852978,-2872.961337612614,1473.064945427263,1414.5920293436386,-23693.678136964765,0.0
-519.7539612125687,11093.526893373268,14161.568646131676,11998.201749423904,-2869.7459226752253,1473.279306423089,1413.8179479698226,-23708.969221333682,0.0
-522.2072037203542,11093.30062343323,14159.591761392392,11994.748155602265,-2873.3424238274156,1471.6239631775445,1414.520575678363,-23736.848059735265,0.0
-522.3620199951173,11093.586438094331,14158.936769460703,11992.521183034518,-2875.5217606183123,1472.457589272423,1413.9846731887983,-23763.190644333426,0.0
-520.8019483032731,11095.610958610465,14159.377400396568,11992.414002536605,-2876.0219362752396,1471.5525095122691,1411.98397056109,-23782.780857563073,0.0
-520.1231384831577,11094.967875622986,14158.984405237554,11990.627660904722,-2877.8082779071224,1473.5770300284028,1416.4736425292215,-23784.63865286023,0.0
-517.9914374691111,11093.20535187953,14159.15113045653,11993.330991240971,-2872.9970644452515,1482.2586503593523,1423.0711976229748,-23767.906586241596,0.0
-517.2530829279331,11093.669800703818,14158.484229580627,11992.43782042503,-2874.6881345234337,1482.5921007973036,1423.6547358893897,-23745.37486379145,0.0
-516.3599121119917,11093.312532377442,14155.959533407566,11990.925384510036,-2876.450658266891,1481.0677559380972,1426.1079783971752,-23715.22141704527,0.0
-515.1928355791616,11095.563322833614,14158.055507588973,11993.23571968727,-2875.5455785067375,1482.5682829088787,1432.264902555064,-23684.0318921526,0.0
-515.6572844034512,11096.134952155817,14159.710850834517,11993.545352236797,-2875.021584961385,1478.5906955418868,1431.228824408572,-23677.481972835696,0.0
-517.2888097605706,11095.479960224126,14162.652360055019,11997.356214384812,-2870.0674641689643,1478.0667019965344,1423.535646447264,-23706.646977212236,0.0
-517.4555349795463,11101.351069720913,14166.463222203034,12002.167427846685,-2865.6135190334703,1479.3409590272772,1415.5804717132803,-23743.1478912237,0.0
-517.7651675290726,11104.506939937239,14167.487391405313,12003.155870216326,-2866.4233272399233,1478.2334272155101,1418.8673403159444,-23764.857896523183,0.0
-518.2296163533622,11105.626380693218,14165.760594494495,12002.024520516134,-2866.9473207852757,1479.1504159198764,1422.3923878028593,-23782.364044515634,0.0
-518.8012456755646,11103.280318683348,14162.914356827694,11999.880910557875,-2868.745571361371,1475.0537391107591,1416.5093693618592,-23782.852311228347,0.0
-517.5508065332467,11107.329359715613,14169.05937204137,12005.263753341946,-2865.0418897112672,1474.07720568533,1408.113563692011,-23766.810963374042,0.0
-513.9066696042063,11108.29398419683,14168.082838615943,12002.98914499735,-2868.495483532907,1474.0652967411174,1412.853323488606,-23744.10060676071,0.0
-511.5367897059086,11103.637587009724,14165.939228657684,12000.762172429604,-2868.5669371981826,1477.6141621164575,1419.8200558529484,-23713.875706349252,0.0
-509.9529001256393,11104.209216331927,14167.058669413664,12001.047987090704,-2866.0898768019724,1478.6502402629494,1419.6533306339725,-23691.034351349583,0.0
-509.3217260823741,11101.493977051465,14168.332926444406,12002.179336790898,-2866.26851096516,1477.2449848458684,1418.3552557148046,-23692.630149874065,0.0
-511.155703491107,11092.014457458274,14165.570051387092,12003.0367807742,-2865.7326084755955,1478.2810629923604,1419.7605111318856,-23711.19619390143,0.0
-513.0968613977528,11094.134249528108,14162.830994218208,12002.072156292983,-2865.935060527209,1478.6264223745243,1420.7132266688898,-23739.2536664662,0.0
-515.3238339654998,11095.789592773654,14162.36654539392,11998.904377132445,-2869.0909307435345,1477.6975247259454,1420.1535062908997,-23765.631977897,0.0
-517.2649918721455,11095.753865941015,14163.676529257298,12000.619265099052,-2868.6026640308205,1480.3532192853443,1420.4274120077885,-23790.521671301227,0.0
-517.7532585848602,11097.218666079158,14163.31926093092,12000.166725218975,-2866.9473207852757,1473.3507600883643,1409.3759117785412,-23792.23655926784,0.0
-516.5147283867548,11098.183290560375,14164.10525124895,11999.178282849334,-2868.4478477560574,1469.170720669759,1411.209889187274,-23772.467711875,0.0
-517.0982666531698,11102.160877927368,14166.62994742201,12000.500175656927,-2867.102137060039,1477.6975247259454,1424.226365211592,-23745.79167683889,0.0
-515.5143770729006,11103.05404874331,14166.784763696774,12000.226269940038,-2868.0905794296805,1483.2947285058442,1427.096420766817,-23718.579739313212,0.0
-514.2758468747953,11103.887674838186,14166.046409155597,12003.894224757503,-2863.27936596781,1487.1889532633484,1428.4421314628353,-23703.65783221488,0.0
-513.7161264968055,11106.090829517509,14168.642558993932,12003.54886537534,-2863.648543238399,1481.6274763160873,1422.4995683007724,-23701.82385480615,0.0
-511.45342709642074,11108.162985810492,14174.632757932844,12008.086173120322,-2861.3262991169518,1477.5784352838198,1419.5223322476345,-23716.078861028578,0.0
-513.9781232694816,11102.92305035697,14168.761648436057,12003.691772705892,-2863.196003358322,1477.8166141680708,1415.9496489838693,-23742.5762619015,0.0
-516.0026437856152,11112.49784150386,14177.062182552205,12009.372339095276,-2859.12314443763,1483.8663578280466,1428.8708534544871,-23764.34581192204,0.0
-515.3476518539248,11118.761946159662,14180.218052768532,12012.623480865304,-2854.6215635252856,1488.3560297961785,1428.072954192246,-23776.19521141353,0.0
-515.4071965749876,11118.833399824938,14179.93223810743,12012.802115028491,-2853.9546626493825,1490.5949113081379,1430.8953739706208,-23787.044259591166,0.0
-515.2523803002244,11118.249861558523,14178.89615996094,12012.778297140067,-2855.562370118077,1492.7504302106097,1431.7885447865617,-23785.77000256042,0.0
-513.5613102220423,11113.641100148265,14173.310865125253,12010.444144074407,-2858.110884179563,1492.5122513263586,1430.597650365307,-23757.259990115577,0.0
-510.917524606856,11113.736371701967,14177.526631376495,12013.969191561322,-2855.8720026676033,1492.2145277210448,1432.443536718252,-23724.236487814174,0.0
-507.9402885537183,11119.667025919816,14187.137149356024,12021.459917471017,-2849.9770752823906,1497.752186779881,1440.4939830059366,-23703.21720127902,0.0
-507.65447389261703,11123.489797012046,14190.364473237625,12024.913511292656,-2846.1662131343746,1499.4670747464884,1439.9580805163719,-23703.49110699591,0.0
-509.2145455844612,11126.764756670498,14190.29301957235,12024.056067309353,-2845.951852138549,1494.941675945719,1433.3962522552563,-23722.021424190636,0.0
-512.2870531912993,11127.455475434825,14188.447133219404,12022.531722450147,-2847.535741718818,1495.096492220482,1437.0284802400845,-23749.995534145917,0.0
-512.8348646250766,11126.574213563095,14190.697923675576,12025.997225215999,-2845.6660374774474,1497.1091037924032,1436.9927534074466,-23777.40992372321,0.0
-512.6443215176758,11128.170012087578,14196.033130682797,12031.999333099124,-2842.2362615442325,1504.2306524315086,1443.1020417884852,-23793.617996796493,0.0
-514.549752591684,11120.548287791546,14187.399146128699,12025.092145455845,-2842.2481704884453,1503.0993027313164,1441.2680643797523,-23796.237964523254,0.0
-515.7406470129391,11111.116403975204,14172.417694309312,12008.812618717287,-2856.860445037245,1489.3801989984577,1430.3713804252682,-23785.21028218243,0.0
-515.0737461370362,11109.294335510685,14170.702806342702,12009.217522820514,-2857.658344299486,1490.0709177627857,1431.9195431729,-23762.619015011223,0.0
-512.9182272345645,11108.913249295883,14171.738884489196,12011.015773396608,-2855.407553843314,1493.2386969233241,1440.4463472290863,-23735.89534419826,0.0
-508.452373154858,11110.258959991901,14172.64396424935,12012.075669431526,-2854.931196074812,1492.6551586569092,1438.5766429877158,-23710.160115754938,0.0
-508.09510482848134,11109.7826022234,14172.822598412538,12012.266212538927,-2854.2404773104836,1492.9052464853728,1436.2305809778434,-23710.493566192887,0.0
-508.4761910432831,11112.307298396461,14175.132933589772,12013.659559011794,-2854.300022031547,1488.9038412299558,1429.6568437725152,-23726.677821377743,0.0
-510.94134249528105,11113.581555427203,14175.287749864536,12013.230837020144,-2856.169726272917,1484.259352987061,1421.4039454332176,-23751.150701734536,0.0
-512.8944093461394,11116.356339428727,14175.3472945856,12011.39685961141,-2856.8009003161824,1483.8306309954091,1420.1773241793248,-23777.779100993797,0.0
-514.5140257590464,11112.9146545513,14169.488094033024,12005.51384117041,-2862.4219219845063,1480.7104876117207,1418.4981630453553,-23790.521671301227,0.0
-513.6565817757427,11116.475428870852,14170.678988454278,12007.157275471742,-2860.873759236875,1484.3188977081236,1425.2743523022966,-23789.628500485287,0.0
-513.3469492262163,11118.595220940688,14174.299307494894,12007.28827385808,-2862.3385593750186,1486.164784061069,1429.7402063820032,-23785.150737461372,0.0
-514.2758468747953,11107.2221792177,14159.770395555583,11998.27320308918,-2865.8993336945714,1491.2141764071905,1432.5626261603777,-23769.19275221655,0.0
-513.6923086083804,11107.40081338089,14159.032041014403,11998.213658368117,-2866.8520492315756,1488.927659118381,1436.0995825915054,-23746.482395603216,0.0
-511.66778809224667,11108.627434634782,14162.045003900179,12001.63152535712,-2866.482871960986,1489.666013659559,1436.4211240852442,-23722.569235624414,0.0
-509.40508869186203,11113.248104989252,14171.488796660731,12009.76533425429,-2859.039781828142,1497.6330973377553,1441.756331092467,-23716.174132582273,0.0
-509.88144646036403,11105.078569259442,14173.703860284266,12012.480573534753,-2856.693719818269,1496.5255655259882,1441.148974937627,-23735.823890532985,0.0
-512.3346889681495,11108.555980969506,14176.09755807099,12012.885477637981,-2857.515436968936,1493.1434253696239,1440.3034398985358,-23760.689766048792,0.0
-514.0614858789694,11112.438296782799,14176.693005281617,12012.933113414829,-2855.2170107359134,1492.7623391548223,1439.1959080867684,-23790.783668073906,0.0
-511.9178759207103,11118.75003721545,14183.028563602693,12018.232593589415,-2852.2159567943504,1491.5595357893544,1429.5972990514526,-23808.265998177932,0.0
-508.5595536527709,11121.262824444299,14186.994242025472,12025.30650645167,-2846.0113968596115,1495.9896630364233,1424.9766286969827,-23808.337451843207,0.0
-511.632061259609,11118.523767275412,14182.290209061515,12020.6858360972,-2848.3931857021216,1489.8922835995975,1417.235814958825,-23797.85758093616,0.0
-511.46533604063325,11115.272625505386,14176.300010122603,12012.74257030743,-2856.288815715043,1487.0460459327978,1425.7030742939482,-23777.195562727386,0.0
-510.61980100154227,11114.415181522081,14173.20368462734,12009.681971644804,-2860.3616746357347,1486.5815971085083,1427.8228663637824,-23754.544750835114,0.0
-512.4656873544876,11113.653009092477,14170.821895784828,12007.788449515008,-2861.314390172739,1481.9966535866763,1419.403242805509,-23733.382556969413,0.0
-513.2159508398784,11110.151779493988,14165.427144056544,12003.012962885776,-2863.588998517336,1478.5668776534617,1419.1055192001954,-23735.359441708693,0.0
-514.073394823182,11105.019024538378,14162.723813720295,11999.976182111575,-2866.542416682049,1477.2449848458684,1415.6519253785555,-23753.985030457126,0.0
-515.3357429097123,11107.519902823016,14167.594571903228,12006.061652604189,-2861.612113778053,1482.4968292436033,1420.4274120077885,-23782.280681906144,0.0
-513.859033827356,11114.486635187357,14171.61979504707,12009.43188381634,-2859.3613233218807,1485.6288815715043,1432.0624505034505,-23811.25514317528,0.0
-515.026110360186,11121.036554504259,14173.691951340053,12012.254303594715,-2855.705277448628,1486.8435938811845,1427.8109574195698,-23833.2866899685,0.0
-517.1101755973824,11120.345835739932,14170.488445346879,12008.895981326776,-2858.7896939996785,1485.3787937430407,1425.0957181391084,-23835.942384527898,0.0
-518.1700716322995,11116.213432098177,14168.332926444406,12003.632227984828,-2864.0653562858383,1483.4138179479698,1424.5002709284809,-23823.29508577417,0.0
-514.6569330895969,11120.131474744107,14178.193532252397,12012.659207697941,-2856.1101815518546,1490.1900072049111,1432.6459887698657,-23791.891199885675,0.0
-513.5255833894046,11119.595572254542,14176.89545733323,12014.326459887698,-2855.9553652770915,1493.9175067434396,1438.064558386576,-23759.403600073838,0.0
-511.8702401438601,11118.285588391162,14173.418045623164,12014.65991032565,-2854.4429293620974,1496.1563882553992,1433.586795362657,-23742.635806622562,0.0
-510.3458952846535,11121.298551276936,14176.323828011027,12019.828392113897,-2850.0128021150285,1499.0740795874742,1431.3479138506975,-23754.270845118226,0.0
-511.57251653854627,11114.40327257787,14172.215242257696,12016.470069845956,-2848.643273530585,1492.631340768484,1429.668752716728,-23768.978391220724,0.0
-516.1217332277407,11110.223233159264,14170.631352677428,12015.493536420528,-2848.0478263199575,1492.6551586569092,1434.1584246848595,-23795.785424643178,0.0
-519.5991449378055,11114.49854413157,14176.871639444806,12016.779702395484,-2848.2264604831457,1493.1434253696239,1434.3251499038352,-23824.12871186905,0.0
-519.587235993593,11119.297848649227,14180.944498365498,12015.45780958789,-2853.5854853787937,1489.6183778827087,1430.7524666400698,-23846.993884757147,0.0
-518.1700716322995,11119.643208031392,14180.968316253922,12013.600014290732,-2857.5749816899984,1483.0327317331682,1423.8095521641528,-23846.100713941203,0.0
-520.1112295389452,11119.143032374464,14179.801239721093,12014.993360763601,-2855.276555456976,1483.7472683859212,1421.153857604754,-23833.54868674118,0.0
-519.9921400968198,11115.236898672749,14173.90631233588,12012.32575725999,-2855.300373345401,1485.7360620694171,1425.953162122412,-23808.34936078742,0.0
-517.5031707563966,11115.725165385462,14173.263229348402,12010.432235130194,-2856.9080808140952,1487.1532264307107,1427.8466842522075,-23781.292239536506,0.0
-513.7756712178681,11122.727624582441,14176.19282962469,12012.70684347479,-2854.2047504778466,1490.6544560292007,1428.6088566818107,-23761.34475798048,0.0
-513.4064939472792,11122.846714024567,14175.180569366623,12011.71840110515,-2854.7287440231985,1491.8334415062432,1430.1212925968048,-23757.295716948214,0.0
-512.0607832512609,11120.191019465168,14175.716471856187,12010.325054632282,-2858.765876111253,1488.5942086804296,1431.598001679161,-23774.349325060586,0.0
-511.75115070173445,11116.820788253019,14174.882845761307,12011.015773396608,-2857.3844385825973,1489.5469242174336,1434.3608767364728,-23797.774218326675,0.0
-515.0022924717608,11113.164742379764,14173.310865125253,12011.504040109323,-2857.265349140472,1488.153577744565,1430.8715560821954,-23824.200165534323,0.0
-516.9315414341942,11116.249158930814,14175.942741796225,12013.90964684026,-2854.919287130599,1487.677219976063,1432.5388082719526,-23844.755003245187,0.0
-518.5630667913135,11119.393120202927,14177.967262312359,12016.077074686944,-2850.239072055067,1495.17985482997,1435.1945028313514,-23850.530841188272,0.0
-517.3126276489958,11121.632001714888,14178.705616853536,12016.648704009145,-2850.3224346645547,1498.8835364800734,1437.600109562287,-23841.229955758274,0.0
-515.2285624117994,11122.596626196104,14176.871639444806,12013.373744350694,-2852.72804139549,1500.3483366182172,1438.4218267129527,-23815.304184207547,0.0
-513.7994891062932,11121.679637491738,14177.443268767007,12013.480924848607,-2854.2047504778466,1498.1689998273202,1434.599055620724,-23784.44810975283,0.0
-513.4422207799167,11120.643559345246,14178.991431514638,12015.422082755254,-2853.7522105977696,1495.394215825796,1440.589254559637,-23768.01376673951,0.0
-513.5494012778297,11121.048463448473,14178.300712750312,12015.45780958789,-2851.9420510774617,1497.7640957240935,1440.1248057353475,-23768.29958140061,0.0
-514.073394823182,11122.370356256066,14179.193883566253,12014.648001381438,-2852.2635925712007,1494.3700466235166,1437.671563227562,-23782.626041288306,0.0
-515.633466515026,11123.704158007873,14182.754657885805,12018.661315581066,-2848.190733650508,1497.7402778356686,1444.1857557118274,-23806.027116665973,0.0
-515.2047445233743,11123.775611673147,14182.611750555254,12019.649757950709,-2848.0954620968078,1495.6919394311096,1436.564031415795,-23841.241864702486,0.0
-515.6930112360889,11127.908015314903,14183.743100255446,12019.673575839133,-2850.7273387677815,1495.0488564436318,1433.6939758605702,-23867.989353403875,0.0
-517.7413496406475,11130.444620432176,14182.64747738789,12019.947481556022,-2850.95360870782,1494.381955567729,1422.7615650734483,-23861.498978808035,0.0
-519.1466050577286,11127.586473821162,14179.789330776879,12020.304749882398,-2843.9392405666276,1495.5966678774093,1429.1923949482257,-23849.43521832072,0.0
-517.8485301385606,11122.751442470868,14176.359554843666,12018.494590362092,-2846.880749787127,1490.487730810225,1431.9552700055376,-23827.7847577423,0.0
-517.7651675290726,11127.788925872776,14180.265688545382,12020.82874342775,-2846.9045676755527,1489.0229306720812,1426.882059770991,-23797.309769502386,0.0
-517.4317170911212,11128.64636985608,14182.433116392065,12020.376203547674,-2848.440821478972,1492.4050708284456,1425.6792564055233,-23774.111146176336,0.0
-517.3602634258459,11125.442863862903,14179.801239721093,12016.76779345127,-2850.024711059241,1499.4313479138507,1435.4088638271774,-23777.779100993797,0.0
-517.014904043682,11122.144086316028,14178.217350140823,12015.660261639505,-2851.7038721932104,1498.597721818972,1437.4572022317361,-23793.070185362714,0.0
-518.4558862934007,11121.262824444299,14178.52698269035,12015.862713691116,-2852.859039781828,1497.704551003031,1437.8740152791752,-23819.722402510404,0.0
-519.2180587230039,11123.418343346772,14181.718579739314,12019.47112378752,-2849.0243597453864,1498.788264926373,1441.434789598728,-23849.470945153356,0.0
-521.5403028444514,11129.67053905836,14186.875152583347,12024.556242966279,-2843.7486974592266,1500.6936960003811,1445.1622891372565,-23870.549776409574,0.0
-522.1952947761416,11134.338845189679,14191.174281444079,12027.188119637252,-2842.295806265295,1499.1574421969622,1439.1839991425559,-23877.68323399289,0.0
-521.7903906729149,11131.016249754377,14188.590040549954,12023.591618485063,-2843.343793356,1497.383009509292,1432.2172667782138,-23865.5480198403,0.0
-520.063593762095,11122.632353028743,14178.479346913498,12015.160085982578,-2849.7984411192024,1497.5616436724802,1434.0631531311592,-23840.717871157132,0.0
-515.6691933476637,11129.337088620407,14181.8972139025,12020.138024663423,-2847.345198611417,1500.8485122751442,1440.6130724480622,-23807.349009473564,0.0
-513.0849524535403,11130.766161925914,14183.183379877457,12020.542928766648,-2848.2026425947206,1499.1931690295996,1440.7321618901876,-23784.86492280027,0.0
-514.335391595858,11121.96545215284,14182.63556844368,12018.315956198903,-2850.5129777719553,1500.2649740087293,1441.089430216564,-23783.79311782114,0.0
-515.5024681286881,11119.512209645052,14180.134690159044,12016.077074686944,-2853.823664263045,1496.7518354660267,1437.6953811159872,-23804.70522385838,0.0
-517.0982666531698,11127.538838044313,14179.83696655373,12015.553081141592,-2852.716132451277,1497.2520111229537,1446.924812880714,-23836.406833352186,0.0
-517.122084541595,11132.790682442048,14179.396335617865,12016.01752996588,-2852.406499901751,1502.4681286880511,1451.4502116814833,-23859.403004626623,0.0
-519.2180587230039,11130.051625273161,14180.087054382195,12017.946778928314,-2845.8684895290608,1505.3143663548508,1454.3917209019835,-23878.469224310917,0.0
-520.7781304148481,11126.752847726286,14183.707373422809,12016.815429228122,-2847.2737449461415,1500.0982487897534,1451.0214896898315,-23885.05487046046,0.0
-519.7420522683561,11127.646018542226,14186.434521647483,12021.412281694167,-2843.689152738164,1501.2176895457333,1445.4838306309955,-23871.55012772343,0.0
-517.6698959753722,11129.932535831036,14186.803698918073,12023.758343704038,-2842.295806265295,1501.0747822151827,1445.019381806706,-23848.78022638903,0.0
-514.4425720937711,11133.2194044337,14190.626470010302,12025.794773164384,-2841.1525476208903,1501.884590421636,1444.6621134803293,-23820.043944004145,0.0
-508.821550425447,11134.52938829708,14193.127348294936,12027.759748959455,-2839.8306548132978,1502.2656766364375,1437.1594786264222,-23794.975616436725,0.0
-506.9280282956514,11136.422910426876,14193.889520724539,12027.771657903668,-2840.1879231396742,1505.6835436254398,1436.0876736472928,-23792.653372315275,0.0
-510.90561566264347,11134.100666305429,14190.805104173489,12025.377960116946,-2840.1879231396742,1507.1007079867334,1444.3048451539528,-23812.588944927087,0.0
-516.0145527298276,11130.551800930089,14187.101422523387,12021.71000529948,-2845.951852138549,1500.3364276740047,1443.375947505374,-23843.09965999964,0.0
-516.2170047814411,11132.814500330473,14189.137851983733,12026.163950434973,-2840.8905508482144,1500.217338231879,1439.5650853573575,-23870.704592684335,0.0
-516.8600877689188,11136.62536247849,14192.984440964385,12030.808438677868,-2836.4127878242953,1500.7175138888063,1436.4449419736693,-23888.901459441113,0.0
-519.5753270493803,11133.802942700115,14190.840831006126,12029.855723140863,-2838.008586348777,1498.8001738705855,1435.1587759987137,-23892.045420713224,0.0
-520.1707742600079,11132.028510012444,14187.268147742361,12026.104405713912,-2843.677243793951,1493.083880648561,1428.6088566818107,-23873.467467741648,0.0
-515.0380193043985,11136.0656421005,14189.471302421684,12028.474285612208,-2842.2481704884453,1495.5728499889842,1432.0386326150256,-23849.01840527328,0.0
-512.8705914577143,11141.103125502408,14197.72420076098,12035.691105805015,-2832.5423809552167,1506.3861713339804,1440.3034398985358,-23831.214533675517,0.0
-512.4656873544876,11130.944796089103,14189.73329919436,12028.76010027331,-2836.3056073263824,1503.1826653408043,1441.3633359334526,-23805.991389833333,0.0
-513.382676058854,11128.40819097183,14185.469897166266,12022.662720836484,-2842.331533097933,1498.228544548383,1437.9216510560254,-23799.42956157222,0.0
-514.0019411579067,11127.955651091752,14185.148355672527,12023.103351772348,-2840.2236499723113,1502.9087596239156,1439.946171572159,-23818.102786097497,0.0
-512.4061426334248,11130.563709874301,14187.911230729838,12025.032600734781,-2841.9266289947063,1502.3847660785632,1443.6736711106876,-23847.422606748798,0.0
-510.88179777421834,11136.62536247849,14193.913338612965,12030.379716686217,-2837.7942253529513,1506.4695339434684,1444.936019197218,-23878.826492637294,0.0
-510.1910790098903,11136.184731542626,14190.185839074436,12027.426298521503,-2839.044664495269,1506.5767144413812,1444.566841926629,-23894.617752663136,0.0
-509.3336350265867,11131.790331128193,14184.124186470248,12023.127169660773,-2842.152898934745,1508.3987829059013,1447.7941658082302,-23899.107424631267,0.0
-508.1308316611191,11132.576321446222,14187.375328240274,12025.878135773874,-2837.6513180224006,1512.5192776034442,1448.4610666841331,-23888.222649620995,0.0
-508.7381878159592,11135.029563954007,14188.875855211056,12025.949589439148,-2837.7942253529513,1507.8986072489743,1449.8782310454267,-23867.655902965922,0.0
-505.8443143723093,11136.67299825534,14191.162372499866,12026.592672426626,-2840.592827242901,1505.0642785263872,1448.222887799882,-23837.192823670215,0.0
-503.5101613066493,11139.53114486635,14194.770782596268,12032.011242043336,-2837.8656790182263,1506.398080278193,1453.5819126955298,-23817.185797393133,0.0
-502.62889943492064,11136.089459988923,14186.636973699096,12026.818942366664,-2837.6870448550385,1504.433104483122,1444.7097492571795,-23814.00610928838,0.0
-502.6884441559833,11134.124484193853,14186.386885870632,12025.389869061157,-2838.222947344603,1503.6709320535188,1441.2561554355398,-23830.98826373548,0.0
-503.73643124668786,11130.98052292174,14187.63732501295,12026.021043104422,-2838.5921246151925,1508.327329240626,1444.4239345960782,-23860.117541279375,0.0
-505.3679566038073,11134.136393138067,14187.470599793976,12025.06832756742,-2838.699305113105,1513.7578078015492,1457.9763131099612,-23886.1385843838,0.0
-508.452373154858,11133.671944313775,14185.38653455678,12020.626291376138,-2843.1651591928116,1511.9952840580918,1458.0715846636617,-23903.3112819383,0.0
-507.35675028730327,11132.028510012444,14187.518235570824,12021.24555647519,-2843.9392405666276,1508.4226007943266,1452.6649239911635,-23907.157870918953,0.0
-506.28494530817375,11132.028510012444,14191.388642439904,12026.247313044461,-2841.6646322220304,1506.767257548782,1450.1997725391655,-23888.83000577584,0.0
-505.6299533764834,11132.731137720986,14192.174632757933,12028.867280771223,-2838.6635782804674,1507.6604283647234,1451.0572165224692,-23866.29828332569,0.0
-504.7963272816049,11133.886305309603,14192.829624689624,12029.677088977676,-2837.6751359108257,1505.4810915738265,1447.4964422029163,-23840.18196866757,0.0
-504.31996951310276,11135.327287559321,14192.222268534782,12028.617192942758,-2838.6635782804674,1502.2299498038,1444.4477524845036,-23819.50804151458,0.0
-506.6541225787627,11134.636568794993,14191.543458714668,12027.73593107103,-2839.1399360489695,1498.3833608231462,1436.9689355190214,-23824.23589236696,0.0
-507.80929016738014,11136.125186821562,14192.662899470648,12029.117368599686,-2837.6513180224006,1498.7763559821603,1431.9195431729,-23839.59843040115,0.0
-507.55920233891663,11136.184731542626,14192.341357976908,12028.510012444847,-2838.032404237202,1499.5623463001887,1430.8477381937703,-23858.104929707453,0.0
-506.98757301671424,11137.780530067106,14192.484265307457,12029.260275930237,-2837.0915976444107,1501.7893188679357,1436.9212997421712,-23885.031052572034,0.0
-507.77356333474256,11138.554611440923,14190.888466782977,12028.24801567217,-2836.9605992580728,1505.5644541833142,1444.1500288791897,-23914.95822937817,0.0
-507.24956978939036,11136.053733156288,14190.507380568175,12028.140835174258,-2838.4492172846417,1502.7777612375774,1439.8866268510965,-23915.2678619277,0.0
-505.9634038144348,11136.411001482664,14192.72244419171,12030.224900411453,-2837.3297765286616,1501.408232653134,1431.336004906485,-23899.035970965993,0.0
-505.5465907669955,11134.827111902394,14188.816310489992,12026.795124478238,-2840.902459792427,1499.6576178538892,1434.3251499038352,-23868.525255893437,0.0
-504.5581483973539,11132.135690510357,14187.565871347675,12026.080587825485,-2841.6646322220304,1506.0289030076037,1446.8533592154388,-23842.76620956169,0.0
-501.4022781810279,11134.315027301254,14191.519640826242,12031.213342781095,-2835.5910706736295,1512.1262824444298,1451.3787580162082,-23823.795261431096,0.0
-500.18756587134766,11137.518533294431,14194.17533538564,12030.701258179955,-2837.3178675844492,1512.6740938782073,1452.5101077164004,-23826.08177871991,0.0
-500.11611220607233,11139.959866858004,14194.830327317331,12033.035411245615,-2830.017684782156,1512.6621849339947,1447.0796291554773,-23846.434164379156,0.0
-503.48634341822424,11136.268094152112,14186.93469730441,12022.341179342744,-2840.5213735776256,1502.8015791260025,1446.7819055501634,-23873.753282402748,0.0
-504.30806056889026,11135.553557499361,14188.863946266843,12022.519813505933,-2842.22435260002,1503.9567467146198,1445.7934631805217,-23901.715483413816,0.0
-505.70140704175867,11131.980874235594,14186.339250093783,12025.604230056984,-2834.7336266903258,1510.161306649359,1446.3174567258739,-23921.484330806652,0.0
-508.7977325370219,11134.910474511882,14186.517884256971,12024.532425077854,-2836.9963260907107,1507.4460673688973,1449.0922407273981,-23923.449306601724,0.0
-508.690552039109,11136.339547817388,14189.423666644832,12023.794070536676,-2840.592827242901,1503.7423857187941,1446.8652681596514,-23909.551568705676,0.0
-507.63065600419196,11137.10172024699,14191.174281444079,12022.912808664947,-2842.8912534759233,1500.3602455624296,1444.8288386993052,-23884.590421636167,0.0
-505.880041204947,11131.980874235594,14186.648882643309,12021.043104423577,-2844.987227657332,1503.6232962766685,1447.4726243144914,-23859.784090841425,0.0
-505.5823175996332,11134.398389910742,14186.029617544256,12022.41263300802,-2842.021900548407,1506.7077128277192,1445.1265623046188,-23838.08599448616,0.0
-504.9154167237304,11141.912933708862,14191.60300343573,12027.390571688868,-2837.222596030749,1506.6958038835066,1440.482074061724,-23836.87128217648,0.0
-506.3921258060866,11137.173173912266,14190.2453837955,12027.49775218678,-2835.4481633430787,1506.9101648793326,1444.2095736002525,-23855.36587253857,0.0
-506.5945778577,11132.385778338821,14191.102827778803,12031.403885888496,-2831.6611190834874,1510.983023800025,1446.6747250522506,-23881.66082135988,0.0
-507.57111128312914,11134.16021102649,14191.352915607265,12031.415794832708,-2832.852013504743,1510.4590302546726,1451.7360263425844,-23905.704979725022,0.0
-506.7851209651008,11135.529739610934,14191.638730268367,12029.688997921889,-2835.1385307935525,1507.8986072489743,1450.5451319213294,-23921.555784471926,0.0
-504.54623945314125,11131.68315063028,14191.09091883459,12030.046266248266,-2835.7697048368177,1507.5294299783852,1448.889788675785,-23923.29449032696,0.0
-505.6418623206959,11130.09926105001,14188.590040549954,12025.699501610685,-2839.93783531121,1505.1833679685126,1439.767537408971,-23913.886424399047,0.0
-506.0586753681352,11135.291560726684,14192.174632757933,12029.081641767048,-2837.6275001339754,1508.6965065112151,1439.7794463531836,-23892.52177848173,0.0
-504.30806056889026,11134.422207799167,14192.746262080134,12029.23645804181,-2834.674081969263,1506.8268022698446,1444.566841926629,-23866.691278484708,0.0
-503.02189459393475,11130.88525136804,14190.29301957235,12025.151690176906,-2838.0919489582648,1504.9213711958366,1448.0799804693315,-23838.228901816707,0.0
-501.17600824098935,11135.41065016881,14192.698626303285,12026.009134160211,-2837.436957026575,1508.06533246795,1448.1037983577564,-23837.49054727553,0.0
-501.1164635199267,11136.291912040539,14192.996349908599,12023.484437987148,-2840.8071882387267,1505.6954525696524,1447.2225364860278,-23872.764840033105,0.0
-502.5812636580704,11139.864595304303,14193.3774361234,12024.389517747304,-2839.259025491095,1509.708766769282,1447.6274405892545,-23897.9046212658,0.0
-501.90245383795497,11142.246384146812,14193.98479227824,12024.556242966279,-2839.1399360489695,1512.6621849339947,1450.6999481960925,-23922.282230068893,0.0
-502.1525416664186,11143.72309322917,14193.865702836114,12025.092145455845,-2839.4852954311336,1514.269892402689,1458.4288529900382,-23947.362466580526,0.0
-504.62960206262915,11135.910825825737,14185.94625493477,12021.162193865703,-2841.5812696125427,1511.435563680102,1456.070882035953,-23951.149510840114,0.0
-503.2838913666108,11128.479644637104,14181.397038245574,12019.19721807063,-2843.39142913285,1507.2078884846462,1449.580507440113,-23931.78556755051,0.0
-501.23555296205217,11131.63551485343,14184.50527268505,12021.841003685817,-2841.140638676678,1506.743439660357,1454.010634687182,-23903.22791932881,0.0
-496.412430555969,11137.947255286083,14192.138905925294,12027.295300135165,-2837.9490416277145,1508.4940544596018,1455.439707992688,-23870.668865851698,0.0
-493.14937984173014,11141.007853948708,14196.045039627012,12032.904412859276,-2833.2330997195445,1507.958151970037,1449.5447806074753,-23849.506671985993,0.0
-492.7563846827159,11140.864946618158,14198.9746399033,12037.941896261187,-2827.909801656534,1509.3157716102678,1446.0316420647725,-23851.900369772717,0.0
-494.8404499199124,11141.424666996147,14200.713345758331,12037.417902715833,-2829.565144902079,1509.5182236618812,1444.9598370856431,-23878.397770645643,0.0
-495.8408012337666,11140.543405124417,14197.450295044091,12034.631209770097,-2830.898946653884,1513.5077199730858,1451.8789336731352,-23903.811457595228,0.0
-495.1619914136512,11142.448836198426,14197.783745482044,12036.524731899894,-2828.0884358197222,1516.5445007472863,1458.667031874289,-23926.52181420856,0.0
-494.8404499199124,11141.639027991974,14194.615966321506,12033.106864910891,-2828.1598894849976,1517.5924878379906,1461.513269541089,-23950.268248968387,0.0
-495.7098028474285,11137.816256899745,14189.102125151094,12025.604230056984,-2834.47162991765,1512.6026402129319,1458.0477667752364,-23952.114135321335,0.0
-498.5798584026533,11135.517830666722,14187.946957562477,12025.21123489797,-2834.876534020876,1511.7451962296282,1454.1535420177324,-23939.716924396067,0.0
-499.3658487206816,11135.672646941486,14188.947308876332,12026.187768323398,-2835.543434896779,1511.00684168845,1452.653015046951,-23915.863309138327,0.0
-499.1038519480055,11136.327638873174,14190.566925289237,12028.402831946934,-2834.757444578751,1510.5662107525857,1452.8435581543517,-23892.914773640743,0.0
-495.590713405303,11136.089459988923,14190.090567520736,12028.224197783746,-2837.3297765286616,1509.2205000565675,1450.7237660845178,-23875.575350867268,0.0
-493.69719127550746,11139.114331818913,14191.150463555654,12030.105810969328,-2831.3157597013237,1512.5192776034442,1449.0088781179104,-23874.50354588814,0.0
-495.4001702979022,11141.48421171721,14191.817364431558,12027.45011640993,-2832.387564680453,1508.6965065112151,1448.6754276799588,-23892.557505314366,0.0
-497.6033249772242,11140.162318909615,14193.210710904425,12028.28374250481,-2833.6499127669836,1512.0905556117923,1452.1290215015988,-23917.625832881786,0.0
-499.806479656546,11139.352510703164,14196.580942116576,12030.189173578816,-2833.006829779506,1512.543095491869,1448.6992455683842,-23937.692403879933,0.0
-500.97355618937604,11138.602247217774,14196.187946957562,12030.570259793618,-2832.5900167320665,1511.4951084011645,1446.4722730006372,-23958.378239977133,0.0
-501.4380050136655,11140.436224626505,14195.771133910122,12029.415092205001,-2833.3521891616697,1513.317176865685,1451.2358506856574,-23968.25075472934,0.0
-498.0439559130885,11143.473005400705,14198.069560143143,12033.404588516205,-2827.6597138280704,1521.8082540892337,1464.264235654188,-23954.519742052267,0.0
-497.30560137191037,11139.519235922138,14195.092324090008,12030.558350849406,-2832.673379341554,1518.7357464823956,1462.5850745202183,-23926.56944998541,0.0
-496.9840598781714,11137.887710565019,14193.008258852811,12029.808087364016,-2833.661821711196,1512.9599085393083,1453.474732197617,-23905.621617115536,0.0
-496.23379639278085,11137.08981130278,14192.222268534782,12029.998630471415,-2833.0901923889937,1510.2208513704218,1445.5314664078455,-23888.722825277924,0.0
-495.99561750852973,11136.220458375263,14191.26955299778,12028.319469337444,-2836.0912463305563,1508.7441422880654,1446.4722730006372,-23884.423696417194,0.0
-495.2572629673516,11137.637622736556,14192.996349908599,12031.713518438022,-2831.1847613149853,1510.0660350956587,1443.0663149558477,-23900.441226383075,0.0
-495.114355636801,11140.793492952882,14195.080415145794,12033.57131373518,-2830.136774224281,1510.9115701347498,1455.7374315980016,-23927.915160681427,0.0
-496.5910647191573,11139.209603372612,14193.436980844463,12030.129628857752,-2833.876182707022,1505.1833679685126,1450.7594929171555,-23954.877010378645,0.0
-499.2705771669812,11141.103125502408,14194.973234647883,12028.48619455642,-2836.3651520474455,1507.267433205709,1444.0309394370643,-23983.041663441327,0.0
-499.7707528239084,11144.878260817786,14195.98549490595,12030.665531347318,-2833.554641213283,1511.2450205727012,1445.0074728624934,-23989.54394698138,0.0
-500.75919519355006,11138.649882994623,14187.02996885811,12025.806682108598,-2835.019441351427,1509.5658594387314,1445.3290143562322,-23976.98001083714,0.0
-499.83029754497113,11142.317837812088,14194.794600484693,12030.987072841057,-2833.6260948785584,1515.4250599913064,1451.7955710636475,-23949.875253809372,0.0
-498.5917673468659,11138.530793552496,14192.460447419033,12029.915267861927,-2832.5661988436414,1517.1161300694887,1451.7122084541595,-23918.959634633593,0.0
-498.4131331836776,11138.649882994623,14192.698626303285,12026.3783114308,-2836.4842414895706,1506.9220738235451,1449.7353237148761,-23900.4650442715,0.0
-498.270225853127,11136.792087697466,14190.745559452427,12026.914213920363,-2836.103155274769,1508.5774170690897,1455.2968006621372,-23899.607600288196,0.0
-498.9728535616675,11136.57772670164,14190.67410578715,12027.652568461543,-2837.0201439791354,1507.3150689825593,1454.2369046272202,-23920.8650657076,0.0
-499.54448288386993,11137.732894290255,14191.92454492947,12028.045563620557,-2835.1861665704027,1507.7914267510614,1451.569301123609,-23945.588033892855,0.0
-501.5332765673659,11135.255833894045,14189.36412192377,12027.188119637252,-2833.0901923889937,1508.6131439017274,1450.4855872002668,-23969.79891747697,0.0
-502.91471409602184,11137.61380484813,14191.614912379942,12030.153446746179,-2832.661470397342,1505.6120899601644,1444.590659815054,-23991.81855532598,0.0
-502.1049058895684,11137.37562596388,14191.352915607265,12028.66482871961,-2835.483890175716,1506.3742623897679,1446.686633996463,-23997.558666436427,0.0
-501.75954650740437,11135.74410060676,14186.863243639134,12023.90125103459,-2839.79492798066,1507.7080641415735,1446.257912004811,-23986.530984095607,0.0
-501.02119196622624,11140.162318909615,14187.839777064564,12025.163599121119,-2837.5560464687,1509.0061390607414,1445.0670175835562,-23959.461953900478,0.0
-500.22329270398535,11145.03307709255,14190.543107400812,12024.663423464192,-2839.521022263771,1505.9217225096909,1448.3419772420075,-23927.7007996856,0.0
-499.83029754497113,11143.30628018173,14189.959569134398,12025.127872288482,-2836.1984268284696,1505.3858200201262,1448.3777040746452,-23901.67975658118,0.0
-497.0316956550216,11144.42572093771,14195.771133910122,12028.105108341619,-2835.329073900953,1503.8852930493447,1441.1370659934144,-23903.406553492,0.0
-497.38896398139826,11138.59033827356,14192.519992140096,12025.711410554897,-2835.8292495578803,1503.5161157787556,1439.8270821300337,-23929.32041609851,0.0
-497.8415038614752,11132.05232790087,14187.577780291887,12021.328919084677,-2839.6758385385347,1505.8264509559904,1451.3906669604205,-23954.38874366593,0.0
-499.44921133016953,11130.801888758551,14186.803698918073,12021.352736973104,-2841.4145443935668,1504.1472898220206,1448.7945171220845,-23982.02940318326,0.0
-501.4975497347283,11137.851983732382,14192.35326692112,12026.52121876135,-2835.1147129051274,1508.2439666311382,1438.755277150904,-24006.657099814816,0.0
-502.4621742159449,11135.708373774121,14192.781988912773,12026.640308203476,-2835.531525952567,1506.2789908360676,1449.342328555862,-24005.74011111045,0.0
-502.2954489969692,11137.506624350217,14194.413514269892,12030.99898178527,-2830.6845856580585,1514.2103476816262,1457.952495221536,-23988.79368349599,0.0
-502.2835400527566,11141.400849107722,14198.069560143143,12036.786728672569,-2824.2299378948555,1519.3669205256608,1450.4974961444793,-23967.440946522885,0.0
-502.86707831917164,11141.924842653076,14195.89022335225,12030.510715072554,-2828.9101529703885,1509.7683114903448,1446.4722730006372,-23947.94600484694,0.0
-501.08073668728895,11141.031671837134,14191.769728654706,12026.914213920363,-2831.601574362425,1508.3630560732638,1445.5671932404832,-23926.700448371746,0.0
-499.83029754497113,11141.091216558196,14191.388642439904,12027.16430174883,-2831.4229401992366,1510.5423928641605,1448.7349724010219,-23926.593267873835,0.0
-500.7353773051249,11142.460745142638,14191.781637598919,12026.52121876135,-2832.709106174192,1510.1255798167213,1448.5801561262585,-23946.528840485644,0.0
-501.3903692368153,11141.29366860981,14190.769377340852,12024.389517747304,-2835.841158502093,1507.0887990425208,1445.4242859099325,-23973.58596173656,0.0
-502.3669026622445,11138.44743094301,14192.174632757933,12027.462025354142,-2833.0901923889937,1507.9224251373994,1444.1262109907645,-23998.09456892599,0.0
-504.9154167237304,11140.495769347568,14197.462203988305,12031.499157442197,-2829.0173334683013,1511.7928320064784,1448.0799804693315,-24018.68513346949,0.0
-504.02224590778906,11143.484914344917,14201.082523028921,12034.214396722658,-2826.5521820163035,1515.1987900512681,1454.1535420177324,-24022.09109151428,0.0
-503.30770925503606,11142.282110979451,14197.99810647787,12032.285147760225,-2827.5287154417324,1514.6867054501283,1456.2852430317791,-24008.383896725634,0.0
-502.6884441559833,11139.400146480013,14190.650287898727,12027.092848083552,-2832.5661988436414,1512.412097105531,1455.3682543274124,-23986.93588819883,0.0
-500.18756587134766,11142.210657314175,14188.351861665704,12024.163247807266,-2835.1861665704027,1511.1378400747883,1454.665626618872,-23958.12815214867,0.0
-497.25796559506017,11146.045337350617,14192.377084809546,12025.389869061157,-2835.662524338905,1510.0064903745958,1451.9146605057729,-23934.941437766833,0.0
-495.3048987442018,11140.995945004495,14196.426125841812,12029.153095432324,-2833.9952721491477,1510.5423928641605,1450.8428555266432,-23933.178914023378,0.0
-496.3528858349063,11133.278949154761,14193.23452879285,12028.819644994373,-2832.4471094015157,1511.8166498949035,1456.0113373148904,-23949.58943914827,0.0
-498.2344990204893,11131.36160913654,14186.946606248623,12025.639956889621,-2833.161646054269,1510.8401164694744,1456.7258739676433,-23969.298741820043,0.0
-499.94938698709666,11133.195586545275,14185.136446728315,12024.93732918108,-2832.375655736241,1512.7455475434826,1453.8796363008437,-23997.880207930164,0.0
-500.92592041252584,11132.89786293996,14186.148706986382,12028.271833560595,-2826.587908848941,1513.8530793552497,1445.5671932404832,-24025.985316271785,0.0
-501.5332765673659,11139.936048969577,14194.401605325678,12031.129980171607,-2828.0408000428724,1509.4586789408186,1442.4351409125823,-24028.56955716591,0.0
-502.4621742159449,11141.984387374137,14198.057651198933,12030.546441905193,-2832.054114242502,1513.6982630804866,1461.2393638242002,-24010.896683954485,0.0
-504.08179062885176,11137.399443852304,14192.793897856985,12025.81859105281,-2836.555695154846,1515.0320648322922,1455.3206185505624,-23988.412597281185,0.0
-505.07023299849345,11139.078604986275,14190.495471623963,12022.495995617508,-2839.7711100922347,1509.4110431639683,1451.1763059645946,-23965.38069917411,0.0
-502.5693547138578,11149.463204339618,14200.415622153017,12030.308263020941,-2831.518211752937,1516.88986012945,1457.476137453034,-23940.229008997205,0.0
-500.4852894766614,11151.749721628428,14203.22613298718,12036.620003453592,-2823.8964874569047,1519.867096182588,1461.75144842534,-23937.35895344198,0.0
-499.68739021442053,11147.6411358751,14195.092324090008,12028.367105114296,-2830.8632198212467,1508.1248771890128,1453.2960980344287,-23957.866155375996,0.0
-498.5917673468659,11145.747613745303,14194.056245943515,12028.402831946934,-2828.1837073734227,1508.994230116529,1446.1864583395359,-23982.481943063336,0.0
