EEG 1,EEG 2,EEG 3,EEG 4,EEG 5,EEG 6,EEG 7,EEG 8,Trigger
-6369.308268975414,12362.139084559458,15634.097689069375,16821.276519730145,4057.305839550794,2894.7308876331567,9561.024407381163,-26334.54606081898,0.0
-6370.59443495037,12356.113158787906,15628.155125907313,16812.38053840337,4046.909331253238,2884.513013498788,9547.32912153673,-26330.389839288797,0.0
-6369.808444632341,12358.97130539892,15632.430436879618,16818.716096724445,4058.341917697286,2899.0061986054625,9560.40514228211,-26317.861629977193,0.0
-6367.760106227782,12360.150290875963,15634.133415902012,16822.61032148195,4062.986405940181,2903.2219648567057,9564.692362198628,-26299.90294210467,0.0
-6367.510018399318,12359.971656712774,15632.34707427013,16820.073716364674,4058.1871014225235,2891.706015803169,9553.16450420088,-26269.34459125526,0.0
-6366.843117523416,12363.258525315438,15634.038144348315,16816.477215212486,4052.3874455910113,2887.2520706676746,9560.512322780023,-26249.182748703413,0.0
-6366.200034535938,12364.937686449408,15636.07457380866,16818.108740569605,4054.090424613406,2892.8135476149364,9563.644375107926,-26262.99712398997,0.0
-6368.438916047898,12361.67463573517,15633.46651502611,16813.94061009521,4051.220369058181,2893.7305363193027,9563.132290506786,-26275.46578858051,0.0
-6369.7131730786405,12361.531728404618,15632.370892158555,16813.630977545687,4051.220369058181,2895.469242174335,9565.049630525007,-26289.256345978647,0.0
-6371.308971603123,12361.984268284694,15632.644797875444,16813.8334295973,4051.5180926634944,2895.814601556499,9562.12003024872,-26314.646215039807,0.0
-6371.166064272572,12363.651520474452,15636.038846976022,16817.799108020077,4054.114242501831,2895.9455999428374,9565.275900465045,-26325.685806324836,0.0
-6367.236112682431,12363.27043425965,15634.752681001066,16817.227478697878,4051.5538194961327,2893.7067184308776,9564.347002816465,-26317.45672587397,0.0
-6369.963260907104,12362.567806551111,15632.406618991194,16814.881416688004,4050.410560851728,2889.4909521796344,9554.974663721188,-26295.53235957866,0.0
-6369.963260907104,12359.44766316742,15629.941467539196,16814.428876807928,4050.636830791766,2885.4776379800046,9539.67167040806,-26275.037066588862,0.0
-6366.426304475976,12360.519468146551,15631.048999350962,16817.215569753665,4056.25785246009,2892.0037394084825,9552.56905699025,-26271.738289041983,0.0
-6360.93628119399,12365.247318998934,15633.895237017761,16818.32310156543,4056.1387630179647,2886.9186202297237,9539.969394013373,-26236.880809331848,0.0
-6358.792671235731,12362.90125698906,15632.53761737753,16818.751823557082,4057.5916542118957,2888.978867578495,9547.626845142044,-26246.18169476185,0.0
-6362.00808617312,12362.543988662685,15632.406618991194,16818.59700728232,4058.341917697286,2892.920728112849,9555.54629304339,-26274.060533163432,0.0
-6361.686544679382,12370.761160169344,15639.444805020808,16824.873020882336,4063.0102238286063,2901.4713500574603,9559.976420290459,-26285.314485444294,0.0
-6363.830154637641,12369.594083636515,15637.932369105816,16821.979147438684,4063.1769490475817,2893.7305363193027,9549.556094104477,-26300.71275031112,0.0
-6367.60528995302,12363.794427805002,15633.835692296698,16816.465306268274,4055.543315807337,2881.273780672974,9542.065368194782,-26312.51451402576,0.0
-6366.485849197039,12362.66307810481,15632.454254768045,16817.227478697878,4056.5079402885535,2889.348044849084,9545.411781518509,-26320.160056210214,0.0
-6364.961504337833,12365.568860492673,15632.882976759694,16818.763732501295,4059.3184511227155,2895.100064903746,9555.427203601264,-26310.33517723486,0.0
-6359.638206274823,12366.354850810701,15633.823783352485,16819.454451265625,4060.1997129944443,2897.636670021019,9536.63488963386,-26274.79888770461,0.0
-6361.543637348831,12364.10406035453,15633.60942235666,16818.41837311913,4058.3657355857117,2891.8251052452943,9538.671319094206,-26253.374697066232,0.0
-6367.2599305708545,12364.294603461929,15634.585955782088,16819.2400902698,4061.9979635705395,2898.196390399009,9559.571516187232,-26244.40726207418,0.0
-6362.698804937449,12365.818948321135,15636.384206358183,16818.299283677003,4059.5566300069663,2898.625112390661,9567.693416140191,-26244.514442572094,0.0
-6360.209835597025,12364.187422964016,15636.64620313086,16818.001560071694,4059.0683632942523,2902.1858867102137,9569.301123608886,-26257.423738098496,0.0
-6362.424899220559,12366.128580870663,15634.776498889492,16815.51259073127,4056.2816703485155,2898.5893855580234,9563.8111003269,-26272.071739479936,0.0
-6360.69810230974,12368.450824992111,15635.836394924407,16816.78684776201,4058.6039144699625,2899.64928159294,9560.667139054787,-26285.62411799382,0.0
-6361.472183683555,12368.87954698376,15636.086482752873,16817.89437957378,4061.223882196724,2902.1025241007255,9561.083952102226,-26298.74777451605,0.0
-6362.47253499741,12369.296360031201,15633.942872794612,16817.34656814,4059.6876283933047,2904.186589337922,9568.026866578142,-26296.1397157335,0.0
-6359.971656712774,12371.02315694202,15631.120453016238,16819.21627238137,4064.57029552045,2908.4142645333777,9568.193591797119,-26286.815012415074,0.0
-6356.303701895308,12377.870799864239,15637.146378787787,16818.704187780233,4060.8189780934968,2903.9722283420965,9563.906371880601,-26261.258418134938,0.0
-6357.161145878612,12372.714227020202,15637.741825998415,16814.7861451343,4055.0431401504097,2897.6604879094443,9565.573624070357,-26236.666448336022,0.0
-6357.94713619664,12368.045920888884,15635.443399765394,16810.737104102034,4051.399003221369,2894.254529864655,9555.998832923467,-26223.554700758003,0.0
-6360.328925039151,12363.115617984886,15631.358631900488,16810.61801465991,4052.089721985697,2892.992181778124,9549.341733108651,-26227.55610601342,0.0
-6360.7338291423775,12357.923318308214,15628.09558118625,16811.78509119274,4053.232980630102,2894.754705521582,9547.32912153673,-26234.70147254095,0.0
-6360.328925039151,12361.650817846743,15631.32290506785,16812.79735145081,4051.434730054007,2892.4681882327723,9559.785877183058,-26267.939335838182,0.0
-6362.293900834221,12360.829100696077,15631.83498966899,16814.274060533164,4055.0669580388353,2898.720383944361,9567.53859986543,-26288.24408572058,0.0
-6360.293198206513,12363.758700972365,15636.7772015172,16820.812070905857,4063.9629393656105,2906.544560292007,9572.361722271511,-26281.6227127384,0.0
-6362.61544232796,12367.593381008806,15639.730619681912,16824.229937894856,4067.2259900798495,2902.3168850965517,9562.953656343596,-26273.750900613904,0.0
-6363.532431032327,12366.735937025502,15637.051107234089,16819.95462692255,4059.0921811826765,2896.0051446639,9557.213545233148,-26286.969828689835,0.0
-6358.816489124157,12365.65222310216,15634.645500503151,16824.349027336983,4072.430198700734,2906.2468366866933,9553.67658880202,-26266.974711356965,0.0
-6356.780059663811,12366.271488201213,15633.406970305046,16819.31154393507,4065.6421004995805,2890.193579888175,9527.76272619551,-26225.662583883626,0.0
-6355.053262752991,12365.926128819048,15637.467920281526,16823.717853293714,4069.0004227675195,2893.8138989287904,9542.29163813482,-26208.096891170113,0.0
-6359.924020935923,12369.927534074466,15643.74393388154,16828.86251719354,4075.979064076074,2898.9228359959748,9551.592523564823,-26229.318629756875,0.0
-6359.840658326436,12375.572373631216,15645.173007187048,16826.695089346853,4069.5363252570846,2896.6244097629524,9557.856628220625,-26244.204810022566,0.0
-6357.994771973491,12374.85783697846,15641.314509262182,16823.158132915723,4066.523362371309,2898.8156554980615,9550.961349521558,-26266.30781048106,0.0
-6360.197926652812,12369.963260907105,15639.016083029159,16820.97879612483,4065.03474434474,2897.458035857831,9551.794975616438,-26295.44899696917,0.0
-6362.270082945796,12371.10651955151,15641.064421433717,16823.158132915723,4067.285534800912,2900.613906074157,9554.438761231622,-26307.977206280775,0.0
-6362.817894379574,12372.19023347485,15638.42063581853,16819.5259049309,4062.6053197253796,2894.9214307405578,9549.37745994129,-26300.355481984745,0.0
-6361.293549520367,12369.891807241827,15636.7772015172,16817.787199075865,4061.342971638849,2893.587628988752,9552.735782209227,-26293.900834221542,0.0
-6358.852215956794,12370.391982898755,15637.837097552117,16819.621176484598,4064.8680191257645,2896.076598329175,9554.93893688855,-26266.1529942063,0.0
-6361.388821074067,12370.856431723047,15638.289637432194,16821.264610785933,4066.4399997618207,2898.684657111724,9553.271684698793,-26246.491327311378,0.0
-6358.506856574631,12364.687598620943,15634.395412674688,16817.918197462204,4063.8795767561223,2896.8268618145657,9547.900750858933,-26228.330187387237,0.0
-6357.768502033452,12365.22350111051,15633.621331300872,16816.37003471457,4061.6406952441625,2893.6709915982397,9546.76940115874,-26228.365914219874,0.0
-6360.055019322262,12363.2227984828,15631.45390345419,16813.249891330885,4059.568538951179,2892.396734567497,9549.877635598217,-26241.572933351592,0.0
-6363.663429418665,12362.353445555284,15630.62027735931,16811.332551312666,4056.674665507529,2888.3715114236547,9538.123507660428,-26271.261931273482,0.0
-6364.401783959843,12363.353796869138,15631.275269291,16811.296824480025,4055.031231206197,2884.358197224025,9527.738908307083,-26296.55652878094,0.0
-6364.366057127206,12364.211240852443,15631.96598805533,16811.32064236845,4056.0196735758395,2884.120018339774,9528.334355517713,-26310.14463412746,0.0
-6359.590570497972,12365.306863719996,15631.846898613203,16812.67826200868,4057.853650984572,2888.8478691921564,9547.388666257792,-26300.164938877344,0.0
-6358.697399682032,12365.09250272417,15630.203464311873,16812.67826200868,4060.128259329169,2894.8142502426444,9540.660112777701,-26275.584878022637,0.0
-6359.947838824349,12364.139787187165,15627.535860808259,16809.284212908104,4056.674665507529,2891.7179247473814,9545.888139287012,-26264.319016797566,0.0
-6354.695994426614,12359.709659940097,15625.05880041205,16807.640778606772,4054.99550437356,2891.6941068589563,9555.927379258192,-26249.004114540225,0.0
-6354.81508386874,12357.828046754516,15626.404511108065,16808.31958842689,4055.6862231378877,2887.6093389940515,9540.195663953413,-26218.100404308654,0.0
-6358.232950857741,12359.233302171595,15627.035685151332,16809.391393406015,4058.4729160836246,2893.2779964392257,9542.863267457024,-26221.67308757242,0.0
-6358.006680917702,12363.067982208036,15629.322202440142,16808.593494143774,4056.6032118422536,2895.7550568354363,9553.998130295759,-26256.649656724683,0.0
-6360.162199820175,12360.698102309738,15625.38034190579,16804.377727892534,4051.399003221369,2894.0997135898915,9554.796029558,-26277.585580650346,0.0
-6357.828046754515,12364.092151410317,15627.869311246212,16809.903478007156,4059.0921811826765,2898.720383944361,9555.522475154965,-26296.66370927885,0.0
-6357.768502033452,12366.1643077033,15627.428680310344,16807.057240340357,4056.6984833959546,2888.1095146509783,9543.3158073371,-26308.239203053454,0.0
-6359.9002030474985,12365.056775891533,15628.726755229512,16808.355315259523,4054.769234433521,2878.760993444126,9536.432437582245,-26294.758278204845,0.0
-6361.698453623594,12360.5671039234,15627.535860808259,16812.344811570732,4061.2953358619993,2891.062932815691,9546.400223888151,-26291.28086649478,0.0
-6357.959045140853,12363.2227984828,15626.571236327043,16811.177735037898,4061.5216058020374,2897.327037471493,9561.750852978128,-26259.72216433152,0.0
-6355.136625362478,12365.568860492673,15626.404511108065,16805.580531258,4054.3762392745066,2890.765209210377,9549.85381770979,-26236.559267838107,0.0
-6353.255012176895,12364.139787187165,15626.142514335394,16804.7230872747,4052.959074913214,2885.430002203155,9542.351182855884,-26227.830011730308,0.0
-6353.255012176895,12361.174460078242,15625.940062283777,16802.460387874315,4050.32719824224,2880.5711529644336,9536.360983916971,-26225.972216433154,0.0
-6355.279532693029,12360.579012867613,15627.10713881661,16804.96126615895,4055.0074133177727,2894.9571575731957,9541.386558374666,-26241.001304029392,0.0
-6352.909652794731,12359.804931493798,15624.582442643547,16807.08105822878,4059.127908015315,2901.066445954234,9552.616692767102,-26254.49413782221,0.0
-6353.779005722247,12363.36570581335,15625.046891467837,16809.474756015505,4062.986405940181,2898.4583871716854,9556.772914297284,-26276.001691070076,0.0
-6355.196170083542,12372.452230247527,15632.740069429146,16811.546912308488,4060.6046170976715,2900.62581501837,9558.90461531133,-26295.651449020785,0.0
-6357.2206905996745,12363.663429418664,15628.17894379574,16811.09437242841,4058.782548633151,2907.699727880625,9563.168017339422,-26286.70783191716,0.0
-6361.91281461942,12352.67147391048,15623.927450711855,16811.666001750615,4066.380455040758,2905.9967488582297,9556.439463859331,-26266.30781048106,0.0
-6360.7338291423775,12358.197224025103,15630.548823694035,16811.13009926105,4067.2378990240622,2893.9210794267033,9543.208626839187,-26244.871710898467,0.0
-6356.660970221686,12363.937335135553,15633.871419129337,16812.642535176044,4067.4522600198875,2891.5273816399804,9545.340327853233,-26226.65102625327,0.0
-6355.398622135154,12360.364651871789,15628.012218576761,16806.533246795007,4058.9254559637016,2884.120018339774,9543.87552771509,-26214.658719431227,0.0
-6354.457815542362,12358.36394924408,15623.15336933804,16801.74585122156,4051.958723599359,2874.5928629697337,9530.19215081487,-26217.207233492714,0.0
-6352.492839747292,12360.531377090763,15622.010110693634,16799.780875426488,4051.0298259507804,2867.2450443905896,9496.716108633389,-26228.437367885148,0.0
-6349.372696363604,12355.10089852984,15620.997850435568,16802.246026878485,4052.6851691963248,2869.7101958425874,9495.21558166261,-26244.847893010046,0.0
-6361.436456850918,12349.17024431199,15616.960718347515,16799.757057538063,4051.07746172763,2869.138566520385,9506.147992449729,-26264.02129319225,0.0
-6364.270785573504,12357.327871097588,15625.082618300476,16805.354261317963,4056.7461191728044,2879.939978921169,9529.441887329478,-26287.67245639838,0.0
-6363.770609916578,12356.17270350897,15625.392250849998,16807.235874503545,4061.6287862999507,2891.086750704116,9540.42193389345,-26292.73375768871,0.0
-6360.829100696077,12357.3397800418,15626.094878558542,16807.2835102804,4059.3303600669283,2884.4534687777254,9539.647852519634,-26261.61568646132,0.0
-6359.924020935923,12356.756241775385,15624.16562959611,16806.295067910753,4059.4613584532667,2891.408292197855,9540.267117618687,-26236.10672795803,0.0
-6357.29214426495,12355.362895302516,15622.403105852649,16803.556010741868,4057.4130200487075,2890.634210824039,9536.087078200082,-26225.67449282784,0.0
-6356.12506773212,12356.279884006883,15623.260549835955,16804.11573111986,4058.8182754657887,2893.373267992926,9542.910903233873,-26212.407928975055,0.0
-6354.86271964559,12355.982160401569,15623.093824616979,16803.734644905056,4056.8294817822925,2888.526327698418,9531.049594798173,-26218.517217356097,0.0
-6352.742927575756,12359.007032231557,15625.320797184726,16805.497168648515,4057.901286761422,2889.6934042312478,9536.384801805394,-26221.732632293482,0.0
-6355.493893688855,12359.173757450531,15624.475262145634,16805.425714983237,4058.1394656456728,2893.0874533318247,9547.32912153673,-26257.11410554897,0.0
-6357.6732304797515,12362.317718722647,15626.41642005228,16809.224668187042,4062.474321339041,2895.6359673933107,9547.603027253617,-26277.84757742302,0.0
-6356.684788110109,12362.52017077426,15626.190150112241,16808.73640147433,4062.1051440684523,2894.004442036191,9547.32912153673,-26290.506785120964,0.0
-6361.936632507845,12358.780762291517,15621.986292805212,16800.11432586444,4050.220017744327,2883.8222947344602,9541.910551920018,-26286.32674570236,0.0
-6360.150290875962,12359.471481055847,15625.43988662685,16802.793838312264,4054.0546977807676,2885.608636366343,9536.182349753783,-26270.30921573648,0.0
-6358.221041913529,12361.114915357179,15628.631483675816,16806.36652157603,4057.1748411644567,2886.06117624642,9532.073764000452,-26243.3830928719,0.0
-6358.792671235731,12362.567806551111,15627.654950250386,16806.59279151607,4057.579745267683,2887.78797315724,9541.44610309573,-26226.793933583816,0.0
-6358.41158502093,12360.483741313914,15624.534806866697,16804.04427745458,4057.115296443393,2890.562757158764,9542.648906461196,-26213.241555069937,0.0
-6355.934524624719,12362.448717108984,15625.61852079004,16804.746905163123,4057.770288375084,2892.110919906396,9545.280783132172,-26216.480787895747,0.0
-6358.328222411442,12363.198980594376,15625.308888240514,16803.829916458755,4056.1387630179647,2891.5631084726183,9545.26887418796,-26229.806896469596,0.0
-6358.911760677856,12363.663429418664,15624.975437802561,16802.7342935912,4055.174138536748,2891.146295425179,9544.875879028945,-26247.324953406256,0.0
-6357.887591475577,12362.031904061545,15625.72570128795,16803.47264813238,4056.2697614043027,2891.706015803169,9546.745583270314,-26265.236005501934,0.0
-6360.924372249779,12359.983565656987,15626.654598936533,16804.83026777261,4058.318099808862,2894.5165266373306,9547.495846755704,-26285.147760225314,0.0
-6361.412638962493,12358.935578566281,15621.009759379782,16803.174924527066,4059.211270624803,2895.2906080111466,9545.923866119649,-26282.69451771753,0.0
-6360.221744541238,12358.756944403094,15619.87840967959,16798.316075288345,4051.3513674445194,2891.491654807343,9541.088834769354,-26264.2594720765,0.0
-6357.80422886609,12354.195818769686,15617.615710279204,16795.25547662572,4046.4567913731607,2890.812844987228,9543.244353671826,-26234.761017262015,0.0
-6357.649412591327,12355.779708349955,15618.94951203101,16798.316075288345,4057.56783632347,2896.3743219344888,9543.494441500288,-26206.37009425929,0.0
-6358.685490737818,12358.304404523016,15620.06895278699,16797.089454034453,4055.674314193675,2894.302165641505,9544.14943343198,-26197.49793082094,0.0
-6357.268326376525,12362.532079718472,15626.666507880742,16802.5437504838,4058.3776445299245,2899.4825563739646,9550.782715358371,-26210.00232224412,0.0
-6358.256768746167,12360.55519497919,15627.833584413574,16805.30662554111,4060.0925324965315,2897.458035857831,9551.509160955335,-26225.769764381537,0.0
-6357.018238548061,12361.472183683554,15625.558976068976,16804.937448270524,4058.1751924783107,2895.7669657796487,9553.795678244145,-26240.48921942825,0.0
-6359.138030617895,12360.519468146551,15623.927450711855,16803.61555546293,4054.411966107145,2889.5147700680595,9546.007228729137,-26261.877683233994,0.0
-6360.245562429663,12355.743981517318,15622.17683591261,16802.496114706948,4054.757325489308,2882.2503140984036,9541.648555147343,-26271.750197986195,0.0
-6359.781113605373,12356.375155560583,15623.415366110716,16805.163718210562,4059.8781715007053,2882.750489755331,9530.620872806521,-26275.7396942974,0.0
-6358.113861415616,12361.615091014106,15627.738312859872,16809.26039501968,4063.843849923485,2883.643660571272,9522.427519188286,-26267.391524404404,0.0
-6354.362543988663,12362.960801710125,15629.107841444316,16811.97563430014,4068.0477072305152,2893.2303606623755,9537.170792123423,-26252.517253082926,0.0
-6354.243454546537,12362.52017077426,15629.750924431793,16808.295770538465,4062.9149522749058,2895.266790122722,9537.706694612989,-26218.803032017197,0.0
-6354.243454546537,12360.2812892623,15626.535509494406,16804.461090502024,4060.568890265033,2884.155745172412,9529.096527947315,-26196.97393727559,0.0
-6356.518062891135,12356.815786496449,15621.629024478834,16799.09015666216,4055.6028605283996,2883.3935727428084,9526.500378108978,-26204.095485914695,0.0
-6357.816137810302,12359.030850119983,15622.403105852649,16800.161961641294,4053.9594262270675,2889.228955406958,9544.232796041468,-26228.330187387237,0.0
-6355.708254684681,12360.209835597025,15619.437778743726,16795.850923836344,4049.172030653622,2886.430353517009,9539.969394013373,-26250.992908223718,0.0
-6356.363246616371,12357.959045140853,15615.519736097795,16790.563352605972,4045.2420790634806,2880.88078551396,9530.859051690772,-26265.140733948232,0.0
-6357.994771973491,12357.077783269124,15617.794344442395,16797.744445966142,4057.091478554969,2888.573963475268,9538.123507660428,-26281.717984292103,0.0
-6359.423845278997,12363.008437486973,15626.071060670116,16801.150404010932,4056.079218296902,2887.656974770902,9542.61317962856,-26285.92184159913,0.0
-6357.89950041979,12362.174811392097,15625.320797184726,16798.60188994945,4054.0546977807676,2884.8821907693773,9528.489171792473,-26262.592219886745,0.0
-6357.601776814477,12359.781113605373,15626.571236327043,16800.733590963493,4055.757676803163,2879.034899161015,9517.96166510858,-26242.394650502258,0.0
-6357.875682531365,12356.625243389046,15624.463353201421,16802.186482157424,4060.699888651371,2882.905306030094,9528.370082350348,-26221.16100297128,0.0
-6356.839604384873,12359.471481055847,15625.76142812059,16805.53289548115,4062.926861219118,2885.6205453105554,9524.166225043318,-26203.714399699893,0.0
-6355.553438409917,12359.554843665333,15625.189798798387,16804.294365283044,4061.700239965226,2886.9186202297237,9532.728755932143,-26205.2387445591,0.0
-6358.399676076717,12359.173757450531,15624.332354815084,16802.460387874315,4059.9734430544063,2887.037709671849,9528.084267689248,-26215.623343912444,0.0
-6361.722271512019,12357.625594702902,15623.343912445442,16801.067041401446,4058.758730744726,2886.1683567443324,9525.476208906699,-26243.371183927688,0.0
-6361.460274739343,12355.481984744642,15621.128848821907,16799.375971323265,4056.9128443917807,2884.155745172412,9526.690921216381,-26267.98697161503,0.0
-6362.281991890009,12354.3982708213,15620.033225954352,16798.327984232557,4056.9128443917807,2887.478340607713,9532.180944498365,-26293.15057073615,0.0
-6359.602479442185,12357.816137810301,15620.58103738813,16799.5069697096,4057.7821973192968,2887.680792659327,9533.991104018673,-26289.101529703883,0.0
-6356.387064504796,12360.543286034977,15618.508881095146,16796.636914154373,4055.2813190346606,2886.6208966244094,9535.789354594768,-26269.082594482585,0.0
-6355.208079027753,12365.664132046371,15622.796101011663,16799.13779243901,4057.8774688729964,2889.895856282861,9542.255911302182,-26238.226520027867,0.0
-6355.934524624719,12362.019995117333,15621.962474916787,16798.80434200106,4058.2823729762235,2888.7645065826687,9533.97919507446,-26214.884989371265,0.0
-6355.255714804604,12356.339428727946,15617.222715120191,16795.20784084887,4056.222125627452,2885.703907920043,9529.572885715817,-26204.428936352648,0.0
-6354.898446478227,12358.721217570455,15621.89102125151,16799.566514430662,4060.1044414407443,2889.4552253469965,9531.823676171989,-26207.072721967834,0.0
-6353.505100005359,12350.539772896433,15614.829017333468,16792.147242186245,4049.410209537873,2880.749787127622,9521.855889866083,-26225.936489600514,0.0
-6355.565347354131,12345.692832601924,15609.874896541047,16783.40607713423,4039.954507833108,2877.3081022501947,9526.059747173114,-26244.35962629733,0.0
-6355.6368010194055,12349.670419968917,15614.257388011265,16786.65721890426,4043.7534610369116,2887.954698376215,9542.446454409584,-26261.85386534557,0.0
-6358.090043527191,12354.600722872912,15618.330246931957,16793.171411388525,4050.208108800114,2899.6016458160902,9553.509863583044,-26280.288910986594,0.0
-6359.590570497972,12352.766745464181,15615.96036703366,16790.8729851555,4049.898476250588,2891.9561036316327,9549.163098945462,-26278.693112462115,0.0
-6362.758349658511,12348.193710886562,15610.934792575963,16784.299247950174,4040.0855062194464,2879.5112569295165,9535.884626148469,-26267.18907235279,0.0
-6359.328573725296,12347.991258834947,15610.756158412776,16786.44285790843,4043.4438284873854,2882.119315712065,9543.720711440326,-26233.62966756182,0.0
-6355.041353808778,12349.372696363604,15613.233218808986,16794.267034256078,4055.6981320821005,2886.311264074883,9540.45766072609,-26210.526315789473,0.0
-6354.433997653939,12350.134868793206,15615.30537510197,16794.731483080366,4055.864857301076,2880.809331848685,9517.330491065315,-26210.431044235775,0.0
-6354.660267593977,12355.529620521493,15620.128497508053,16794.14794481395,4049.3744827052356,2868.364485146569,9506.231355059217,-26202.76168416289,0.0
-6356.541880779559,12354.088638271773,15618.913785198372,16798.089805348307,4056.1625809063894,2881.333325394037,9523.773229884304,-26216.92141883161,0.0
-6357.244508488099,12351.242400604975,15614.245479067053,16791.325525035576,4049.4340274262986,2879.2373512126283,9528.739259620937,-26241.549115463167,0.0
-6360.209835597025,12351.96884620194,15615.019560440867,16792.337785293643,4053.673611565966,2879.5946195390047,9529.334706831565,-26262.973306101547,0.0
-6359.400027390572,12351.492488433438,15616.305726415823,16792.49260156841,4052.863803359513,2874.9144044634722,9519.914731959438,-26277.6332164272,0.0
-6357.494596316563,12351.945028313514,15618.115885936131,16793.504861826477,4050.32719824224,2871.5918090281707,9515.055882720717,-26274.01289738658,0.0
-6356.053614066845,12350.61122656171,15617.460894004442,16792.73078045266,4050.0652014695634,2873.0208823336766,9507.55324786681,-26259.71025538731,0.0
-6355.279532693029,12352.95728857158,15617.091716733852,16794.028855371827,4053.209162741677,2878.4870877272374,9526.726648049016,-26239.060146122745,0.0
-6352.516657635718,12355.612983130979,15619.902227568014,16798.744797279996,4058.854002298426,2886.049267302207,9528.858349063064,-26214.920716203906,0.0
-6348.741522320339,12355.56534735413,15620.43813005758,16799.07824771795,4058.9135470194888,2881.285689617187,9509.42295210818,-26193.055894629662,0.0
-6350.515955008009,12353.159740623196,15617.329895618102,16795.81519700371,4056.4960313443407,2880.4401545780956,9522.225067136673,-26191.84118231998,0.0
-6350.170595625844,12354.314908211813,15617.437076116015,16795.612744952094,4055.900584133714,2879.9637968095935,9521.427167874432,-26204.881476232724,0.0
-6348.872520706676,12354.457815542362,15616.960718347515,16795.053024574107,4053.2806164069525,2876.8912892027556,9518.414204988656,-26231.581329157263,0.0
-6350.718407059622,12353.814732554883,15614.674201058704,16792.992777225336,4051.9706325435714,2879.4159853758165,9524.285314485443,-26247.872764840035,0.0
-6354.100547215987,12353.350283730595,15614.519384783942,16792.385421070496,4052.4827171447114,2883.7746589576104,9525.190394245597,-26261.984863731905,0.0
-6352.909652794731,12356.50615394692,15618.616061593058,16796.410644214335,4056.2697614043027,2886.1683567443324,9532.371487605766,-26266.057722652597,0.0
-6348.705795487701,12357.268326376525,15618.080159103494,16794.529031028756,4053.1377090764017,2879.6541642600673,9531.347318403486,-26250.30218945939,0.0
-6350.039597239506,12359.888294103286,15618.687515258334,16795.83901489213,4054.8764149314343,2883.5245711291464,9529.72770199058,-26232.021960093127,0.0
-6348.777249152976,12360.412287648638,15621.37893665037,16796.910819871264,4055.567133695762,2885.299003816817,9531.228228961361,-26211.68148337809,0.0
-6348.396162938175,12355.32716846988,15618.365973764596,16793.67158704545,4052.5660797541996,2882.690945034268,9527.857997749208,-26191.03137411353,0.0
-6351.063766441785,12354.183909825475,15616.591541076925,16790.658624159674,4048.6004013314196,2882.1431336004907,9529.50143205054,-26200.022626994003,0.0
-6351.623486819776,12355.029444864565,15617.472802948654,16791.480341310344,4048.183588283981,2886.311264074883,9528.548716513536,-26213.336826623636,0.0
-6349.503694749942,12352.504748691505,15613.697667633276,16791.57561286404,4053.6974294543916,2884.7631013272517,9527.679363586021,-26231.879052762575,0.0
-6350.373047677458,12351.40912582395,15609.458083493608,16785.835501753594,4047.2308727469767,2878.5942682251502,9533.181295812221,-26256.17329895618,0.0
-6351.635395763988,12351.290036381824,15609.600990824158,16787.3598466128,4048.1478614513426,2883.9175662881607,9534.693731727213,-26271.42865649246,0.0
-6352.564293412567,12349.551330526792,15610.041621760021,16788.169654819252,4050.0294746369264,2883.0958491374945,9529.751519879006,-26266.4388088674,0.0
-6353.921913052798,12348.97970120459,15612.578226877295,16787.800477548662,4047.8382289018164,2881.654866887776,9532.681120155294,-26251.707444876476,0.0
-6351.837847815602,12349.991961462656,15613.411852972175,16790.468081052277,4053.6140668449034,2886.430353517009,9537.790057222475,-26232.295865810018,0.0
-6350.480228175371,12352.766745464181,15610.35125430955,16787.967202767635,4049.6841152547618,2881.3452343382496,9530.89477852341,-26210.550133677898,0.0
-6349.920507797381,12351.087584330211,15609.410447716757,16784.81133255131,4045.05153595608,2874.223685699144,9518.688110705545,-26187.589689236098,0.0
-6349.360787419391,12347.705444173846,15613.650031856425,16787.812386492875,4048.1478614513426,2874.831041853984,9504.51646709261,-26187.137149356022,0.0
-6349.813327299468,12348.753431264551,15613.471397693236,16786.978760397997,4047.29041746804,2867.614221661179,9499.931523570778,-26193.00825885281,0.0
-6350.349229789033,12352.564293412566,15616.23427275055,16790.360900554362,4049.529298979999,2867.29268016744,9499.443256858063,-26220.565555760655,0.0
-6349.944325685806,12350.873223334385,15614.626565281855,16790.337082665934,4051.2799137792435,2876.0695720520894,9517.925938275941,-26256.625838836255,0.0
-6349.658511024704,12350.361138733246,15615.531645042009,16790.95634776499,4053.542613179629,2879.6541642600673,9523.666049386391,-26270.976116612383,0.0
-6352.457112914655,12349.384605307816,15612.042324387732,16786.800126234808,4048.767126550395,2871.5918090281707,9507.55324786681,-26261.90150112242,0.0
-6350.456410286946,12351.587759987138,15610.648977914863,16787.51466288756,4048.004954120792,2874.8072239655594,9525.416664185637,-26235.80900435272,0.0
-6351.528215266076,12351.528215266075,15608.76736472928,16786.168952191543,4048.3384045587436,2876.9508339238187,9524.047135601193,-26219.362752395187,0.0
-6349.12260853514,12355.958342513144,15612.756861040483,16788.360197926653,4051.327549556094,2878.284635675624,9521.867798810295,-26200.498984762507,0.0
-6346.83609124633,12351.694940485051,15609.446174549395,16784.93042199344,4048.4336761124446,2875.355035399337,9520.141001899476,-26174.716120542333,0.0
-6347.586354731721,12350.908950167022,15610.291709588486,16783.822890181673,4047.4333247985896,2876.8317444816926,9521.70107359132,-26185.01735728619,0.0
-6348.693886543489,12353.314556897958,15612.721134207846,16785.50205131564,4047.826319957604,2877.415282748108,9523.80895671694,-26201.987602789075,0.0
-6347.479174233808,12351.706849429263,15609.720080266285,16784.59697155549,4045.873253106746,2874.628589802371,9520.950810105931,-26217.409685544328,0.0
-6349.098790646714,12345.06165855866,15602.491351129265,16781.619735502347,4043.717734204274,2872.2229830714355,9508.112968244799,-26244.633532014217,0.0
-6350.349229789033,12344.811570730197,15604.325328537998,16785.132874045048,4047.8144110133912,2874.5333182486706,9514.543798119577,-26256.92356244157,0.0
-6352.838199129456,12344.466211348034,15610.07734859266,16788.5031052572,4049.279211151535,2878.677630834638,9524.654491756033,-26245.883971156534,0.0
-6353.790914666461,12348.026985667586,15616.365271136887,16791.885245413567,4052.2326293162478,2881.607231110926,9527.012462710118,-26229.235267147393,0.0
-6351.742576261901,12352.71910968733,15619.806956014314,16793.338136607497,4052.089721985697,2880.070977307507,9526.78619277008,-26204.67902418111,0.0
-6348.658159710851,12353.74327888961,15619.009056752073,16792.516419456835,4049.3268469283857,2879.8566163116807,9526.857646435355,-26191.364824551478,0.0
-6347.312449014832,12351.111402218636,15616.008002810511,16790.47998999649,4048.779035494608,2882.8457613090313,9526.13120083839,-26169.47618508881,0.0
-6347.836442560185,12349.694237857342,15614.197843290203,16789.301004519442,4051.732453659321,2879.05871704944,9524.08286243383,-26170.202630685773,0.0
-6347.872169392822,12352.540475524142,15617.246533008616,16789.586819180546,4049.505481091574,2876.0457541636647,9519.402647358298,-26185.136446728317,0.0
-6349.539421582579,12355.065171697204,15618.508881095146,16791.170708760816,4049.946112027438,2878.2608177871994,9517.139947957912,-26206.513001589843,0.0
-6349.741873634192,12356.613334444834,15620.033225954352,16792.69505362002,4052.435081367861,2883.2625743564704,9523.89231932643,-26231.914779595212,0.0
-6350.170595625844,12357.708957312389,15621.831476530448,16795.326930290994,4055.2694100904478,2886.870984452873,9527.703181474446,-26242.847190382334,0.0
-6352.421386082016,12357.232599543888,15621.271756152457,16796.720276763863,4056.126854073752,2886.1207209674826,9526.143109782603,-26237.416711821414,0.0
-6351.623486819776,12352.71910968733,15617.020263068578,16790.884894099712,4047.9215915113045,2872.0919846850975,9511.447472624313,-26221.041913529156,0.0
-6351.7068494292635,12351.671122596625,15614.686110002918,16786.323768466307,4041.919483628179,2864.6488945522533,9490.630638140774,-26196.997755164015,0.0
-6348.646250766637,12351.313854270249,15615.091014106145,16787.3598466128,4044.4441798012394,2870.758182933292,9513.507719973086,-26175.454475083512,0.0
-6347.729262062272,12357.839955698728,15619.580686074276,16792.361603182067,4049.86274941795,2876.081480996302,9530.132606093808,-26156.793159502442,0.0
-6347.979349890736,12358.887942789432,15620.319040615454,16795.17211401623,4054.447692939782,2883.2506654122576,9521.820163033446,-26159.16303940074,0.0
-6348.19371088656,12357.685139423964,15619.74741129325,16797.041818257603,4057.7226525982337,2890.181670943962,9524.571129146545,-26178.372166415586,0.0
-6350.932768055448,12358.36394924408,15619.282962468962,16796.70836781965,4058.222828255161,2891.4440190304927,9533.97919507446,-26203.809671253595,0.0
-6351.778303094538,12355.362895302516,15614.197843290203,16790.337082665934,4048.719490773545,2883.0958491374945,9530.227877647507,-26220.68464520278,0.0
-6351.742576261901,12359.733477828522,15617.63952816763,16792.575964177893,4050.8273738991666,2880.190066749632,9532.931207983756,-26233.117582960684,0.0
-6348.943974371952,12364.53278234618,15626.071060670116,16802.019756938447,4063.2364937686443,2890.0744904460494,9534.72945855985,-26225.55540338571,0.0
-6348.015076723373,12358.673581793606,15624.27281009402,16803.556010741868,4064.606022353088,2890.77711815459,9527.417366813344,-26211.979206983404,0.0
-6345.442744773462,12359.423845278996,15624.534806866697,16800.638319409794,4059.4018137322037,2885.656272143193,9517.235219511615,-26191.793546543133,0.0
-6340.595804478954,12364.592327067243,15627.928855967275,16803.22256030392,4066.4638176502463,2887.073436504487,9525.845386177289,-26174.62084898863,0.0
-6341.548520015958,12363.401432645987,15624.844439416223,16800.471594190814,4063.0935864380945,2887.8951536551526,9531.311591570848,-26153.684925062968,0.0
-6346.288279812553,12356.887240161723,15617.163170399126,16794.267034256078,4054.2690587765937,2882.774307643756,9522.868150124152,-26151.04113944778,0.0
-6347.002816465306,12358.45922079778,15619.675957627976,16797.851626464057,4059.342269011141,2890.5508482145515,9526.071656117327,-26173.953948112732,0.0
-6349.003519093015,12355.89879779208,15616.627267909564,16790.646715215462,4052.542261865774,2889.6219505659724,9530.561328085458,-26201.415973466872,0.0
-6351.111402218637,12360.245562429662,15615.519736097795,16787.991020656063,4046.7068792016244,2882.0359531025774,9529.132254779952,-26222.256625838836,0.0
-6345.811922044051,12369.260633198563,15623.177187226465,16793.338136607497,4051.0298259507804,2887.3830690540126,9542.80372273596,-26220.58937364908,0.0
-6346.526458696804,12356.327519783734,15616.400997969524,16790.146539558536,4051.172733281331,2886.227901465396,9540.32666233975,-26212.217385867658,0.0
-6352.15938930934,12349.87287202053,15608.707820008218,16785.823592809378,4047.6119589617783,2876.0219362752396,9520.450634449004,-26209.049606707118,0.0
-6356.601425500621,12350.444501342734,15607.528834531175,16785.371052929302,4046.82596864375,2869.972192615264,9506.052720896028,-26193.4727076771,0.0
-6352.838199129456,12348.93206542774,15613.507124525875,16788.49119631299,4050.5653771264906,2875.1049475708733,9510.554301808372,-26173.370409846313,0.0
-6346.359733477828,12349.908598853168,15619.818864958528,16790.90871198814,4051.8039073245964,2879.61843742743,9518.985834310859,-26144.82467056883,0.0
-6344.001762523743,12353.124013790557,15622.736556290602,16792.302058461006,4050.089019357989,2884.5011045545757,9521.081808492268,-26145.6463877195,0.0
-6348.7653402087635,12343.573040532092,15607.123930427948,16780.488385802157,4044.051184642225,2874.6166808581584,9500.22924717609,-26172.548692695647,0.0
-6346.74081969263,12348.729613376125,15611.565966619228,16785.811683865166,4050.684466568616,2877.8916405166096,9515.222607939693,-26192.30563114427,0.0
-6344.704390232284,12349.58705735943,15614.269296955477,16787.78856860445,4048.266950893468,2872.985155501039,9512.495459715019,-26203.14277037769,0.0
-6352.11175353249,12345.954829374601,15610.7799763012,16783.108353528914,4042.5863845040813,2866.0422410251217,9506.183719282366,-26217.445412376965,0.0
-6350.6112265617085,12348.18180194235,15611.506421898166,16783.322714524744,4043.7534610369116,2866.994956562126,9498.907354368499,-26210.466771068408,0.0
-6348.110348277073,12352.99301540422,15614.245479067053,16788.931827248856,4051.899178878296,2879.427894320029,9513.710172024697,-26192.126996981082,0.0
-6347.431538456957,12350.694589171197,15613.102220422646,16790.90871198814,4057.544018435046,2884.5725582198506,9524.702127532883,-26177.776719204958,0.0
-6347.526810010659,12347.312449014831,15611.482604009741,16788.788919918305,4052.899530192151,2876.855562370118,9516.711225966263,-26168.10665650437,0.0
-6348.705795487701,12348.026985667586,15610.4941616401,16785.93077330729,4045.956615716234,2868.614572975033,9510.470939198885,-26150.683871121404,0.0
-6348.00316777916,12348.193710886562,15609.100815167232,16783.668073906905,4043.5748268737234,2867.90003632228,9512.12628244443,-26147.789997677755,0.0
-6346.574094473654,12350.43259239852,15609.541446103094,16785.573504980915,4046.170976712059,2870.9249081522676,9519.962367736287,-26163.200171488796,0.0
-6349.920507797381,12354.3029992676,15614.32884167654,16788.229199540314,4047.8977736228794,2875.9862094426016,9521.391441041795,-26193.770431282413,0.0
-6349.610875247855,12354.5888139287,15617.508529781293,16792.96895933691,4054.7811433777338,2884.274834614537,9523.451688390565,-26217.111961939012,0.0
-6351.028039609148,12350.956585943874,15615.793641814684,16791.37316081243,4052.0301772646344,2883.703205292335,9520.712631221679,-26228.40164105251,0.0
-6349.205971144628,12349.765691522618,15613.959664405953,16792.82605200636,4057.0557517223306,2892.253827236946,9527.71509041866,-26220.553646816443,0.0
-6351.563942098714,12350.813678613322,15614.769472612405,16791.778064915652,4054.173787222894,2883.8103857902474,9530.084970316957,-26206.44154792457,0.0
-6355.529620521492,12347.836442560183,15611.720782893992,16784.251612173324,4046.301975098397,2867.6380395496035,9518.771473315033,-26183.076199379542,0.0
-6352.600020245205,12350.242049291119,15611.14915357179,16783.977706456433,4045.8970709951714,2873.008973389464,9517.497216284291,-26156.62643428347,0.0
-6348.705795487701,12352.600020245205,15609.672444489433,16781.691189167625,4043.181831714709,2881.321416449825,9524.666400700246,-26139.227466788932,0.0
-6346.062009872515,12355.874979903656,15611.601693451867,16784.394519503872,4049.9103851948007,2880.4282456338833,9522.606153351475,-26140.20400021436,0.0
-6348.88442965089,12352.707200743118,15606.62375477102,16777.47542291638,4039.382878510906,2865.387249093432,9507.708064141572,-26159.19876623338,0.0
-6352.552384468355,12347.34817584747,15604.765959473863,16779.464216599878,4043.717734204274,2872.8898839473386,9514.877248557528,-26183.14765304482,0.0
-6350.706498115409,12349.467967917304,15611.982779666669,16785.64495864619,4051.2560958908184,2881.7501384414763,9530.09687926117,-26198.04574225472,0.0
-6354.029093550711,12345.835739932476,15606.71902632472,16776.927611482606,4039.811600502557,2867.9119452664922,9520.331545006877,-26213.158192460447,0.0
-6353.052560125282,12348.705795487702,15605.40904246134,16776.796613096263,4037.965714149612,2868.543119309758,9521.319987376519,-26204.941020953785,0.0
-6350.730316003835,12352.183207197764,15610.327436421123,16783.394168190018,4046.849786532175,2874.4380466949706,9518.235570825469,-26186.779881029644,0.0
-6347.741171006484,12353.409828451659,15615.376828767246,16788.384015815078,4052.3755366467985,2875.5098516741,9514.436617621664,-26171.45306982809,0.0
-6345.811922044051,12351.706849429263,15616.734448407477,16790.944438820778,4053.673611565966,2874.3665930296947,9511.161657963212,-26150.445692237154,0.0
-6344.180396686931,12348.836793874038,15613.947755461739,16788.550741034054,4051.327549556094,2876.033845219452,9512.257280830769,-26130.331485462157,0.0
-6346.145372482003,12348.396162938174,15612.578226877295,16786.44285790843,4051.0179170065676,2878.129819400861,9515.972871425085,-26134.428162271273,0.0
-6343.203863261502,12347.407720568533,15612.613953709933,16788.646012587753,4055.5194979189123,2883.4650264080838,9519.069196920345,-26149.492976700152,0.0
-6343.680221030004,12346.276370868341,15610.625160026439,16785.251963487175,4049.898476250588,2878.737175555701,9509.74449360192,-26166.784763696774,0.0
-6341.953424119184,12348.265164551836,15614.23357012284,16784.311156894386,4046.5758808152864,2874.5095003602455,9506.94589171197,-26182.90947416057,0.0
-6340.405261371553,12352.48093080308,15616.05563858736,16785.847410697806,4048.3384045587436,2874.497591416033,9508.25587557535,-26198.403010581096,0.0
-6343.537313699454,12349.26551586569,15612.54250004466,16786.049862749416,4051.3870942771564,2875.5813053393754,9515.365515270243,-26200.98725147522,0.0
-6343.19195431729,12354.529269207638,15615.376828767246,16787.18121244961,4052.7923496942376,2875.164492291936,9507.83906252791,-26188.14940961409,0.0
-6346.681274971567,12351.623486819777,15611.19678934864,16783.465621855295,4048.4336761124446,2865.7802442524458,9487.165135374924,-26163.605075592022,0.0
-6344.561482901733,12358.614037072542,15619.199599859476,16791.801882804077,4054.7335076008835,2881.893045772027,9522.129795582972,-26144.18158758135,0.0
-6341.679518402296,12356.053614066845,15619.592595018488,16791.027801430264,4057.031933833906,2886.3588998517334,9537.075520569724,-26126.723075365753,0.0
-6346.443096087316,12347.753079950697,15611.327787734977,16779.630941818854,4045.09917173293,2871.341721199707,9522.891968012575,-26134.344799661783,0.0
-6349.491785805729,12352.147480365129,15615.138649882994,16785.764048088316,4051.4228211097948,2877.415282748108,9526.726648049016,-26150.93395894987,0.0
-6342.882321767764,12357.673230479752,15619.914136512227,16789.586819180546,4053.899881506005,2879.5231658737293,9529.156072668377,-26167.499300349526,0.0
-6338.618919739671,12356.256066118458,15618.43742742987,16788.43165159193,4052.1373577625477,2876.7602908164176,9523.09442006419,-26186.744154197007,0.0
-6343.823128360555,12351.182855883912,15612.101869108794,16784.775605718674,4049.088668044134,2874.9739491845353,9519.938549847864,-26200.582347371994,0.0
-6344.9544780607475,12353.576553670633,15610.660886859076,16784.20397639647,4049.850840473737,2873.652056376942,9517.008949571577,-26199.236636675974,0.0
-6352.147480365128,12355.18426113933,15611.80414550348,16783.930070679584,4050.7797381223168,2873.5806027116664,9516.211050309335,-26182.51647900155,0.0
-6350.515955008009,12355.684436796257,15618.449336374082,16787.22884822646,4051.851543101446,2873.6401474327295,9509.60158627137,-26159.567943503967,0.0
-6346.848000190544,12351.540124210287,15617.663346056055,16788.193472707673,4054.209514055531,2874.259412531782,9507.136434819371,-26134.690159043952,0.0
-6345.133112223935,12355.589165242556,15616.23427275055,16785.883137530443,4053.7927010080925,2876.081480996302,9513.471993140447,-26118.87508112968,0.0
-6343.608767364729,12353.243103232682,15612.64968054257,16785.251963487175,4055.352772699936,2880.809331848685,9516.663590189411,-26130.331485462157,0.0
-6343.4063153131165,12355.160443250903,15614.305023788116,16787.32411978016,4056.0077646316267,2883.965202065011,9523.261145283164,-26147.361275686104,0.0
-6343.644494197367,12356.470427114284,15614.209752234416,16787.5503897202,4054.9121417640717,2883.643660571272,9527.63172780917,-26167.749388177992,0.0
-6344.740117064922,12354.898446478228,15612.792587873122,16786.121316414694,4051.851543101446,2880.344883024395,9527.453093645983,-26190.40020007026,0.0
-6344.16848774272,12357.959045140853,15621.236029319822,16792.04006168833,4059.3899047879913,2886.7876218433853,9530.477965475971,-26196.271309567048,0.0
-6342.513144497175,12361.281640576155,15627.297681924008,16792.540237345256,4060.116350384956,2889.4790432354216,9534.872365890402,-26186.625064754884,0.0
-6345.156930112361,12362.436808164772,15623.415366110716,16790.396627387,4057.353475327645,2881.2975985613994,9524.237678708594,-26175.942741796225,0.0
-6346.943271744243,12355.66061890783,15614.805199445043,16779.97630120102,4043.2175585473474,2866.5543256262617,9508.946594339679,-26158.519956413264,0.0
-6343.8945820258305,12353.921913052798,15616.603450021139,16782.89399253309,4044.7538123507657,2868.7812981940083,9504.266379264147,-26138.78683585307,0.0
-6339.357274280848,12358.12577035983,15623.33200350123,16793.35004555171,4057.4725647697705,2882.6433092574175,9520.617359667978,-26127.699608791183,0.0
-6339.988448324113,12363.520522088113,15629.631834989668,16800.328686860266,4067.4998957967377,2888.0618788741285,9532.002310335178,-26128.68805116082,0.0
-6343.156227484652,12365.36640844106,15630.727457857225,16799.161610327435,4065.022835400527,2882.0597709910026,9517.842575666455,-26147.658999291416,0.0
-6343.977944635319,12364.687598620943,15628.79820889479,16798.661434670506,4065.8683704396185,2885.9182689158692,9515.901417759807,-26184.052732804972,0.0
-6345.002113837598,12364.651871788306,15627.190501426094,16795.660380728947,4062.1765977337277,2885.763452641106,9519.962367736287,-26195.854496519612,0.0
-6347.598263675934,12367.65292572987,15630.81082046671,16800.38823158133,4067.476077908313,2888.288148814167,9528.322446573498,-26205.75082916024,0.0
-6346.22873509149,12365.759403600074,15629.16738616538,16801.48385444888,4070.96539856259,2891.360656421005,9530.311240256995,-26198.641189465347,0.0
-6348.46761660345,12363.103709040675,15625.630429734254,16799.97141853389,4069.9888651371607,2891.0272059830536,9529.715793046367,-26178.086351754482,0.0
-6346.883727023181,12362.234356113158,15625.630429734254,16802.603295204863,4074.871532264307,2894.647525023669,9529.953971930618,-26161.54482824325,0.0
-6343.977944635319,12359.566752609546,15622.474559517927,16797.30381503028,4068.5359739432297,2886.513716126497,9517.40194473059,-26139.668097724796,0.0
-6343.84694624898,12355.624892075193,15614.412204286029,16784.418337392297,4052.6137155310494,2874.3189572528445,9508.517872348026,-26118.065272923228,0.0
-6343.013320154102,12353.255012176895,15614.126389624927,16784.132522731194,4052.304082981523,2877.4867364133834,9515.663238875557,-26118.529721747516,0.0
-6344.025580412169,12354.136274048624,15616.71063051905,16785.061420379778,4052.994801745851,2876.986560756456,9512.173918221279,-26130.236213908454,0.0
-6344.3113950732695,12354.660267593976,15614.209752234416,16784.156340619622,4051.1012796160558,2871.734716358721,9501.896499365848,-26149.993152357078,0.0
-6344.811570730197,12360.102655099112,15617.937251772943,16787.967202767635,4055.7100410263133,2878.808629220976,9520.200546620537,-26182.087757009904,0.0
-6343.811219416342,12362.42489922056,15620.914487826081,16788.86037358358,4057.7226525982337,2886.6447145128345,9532.347669717341,-26197.331205601968,0.0
-6343.43013320154,12355.041353808778,15615.615007651497,16786.835853067445,4057.1629322202443,2886.632805568622,9530.585145973884,-26193.98479227824,0.0
-6345.2164748334235,12353.969548829647,15614.781381556617,16786.597674183195,4056.9604801686305,2884.6321029409137,9528.024722968185,-26177.12172727327,0.0
-6343.656403141579,12357.518414204987,15617.020263068578,16785.96650013993,4054.9240507082845,2880.9046034023854,9524.54731125812,-26156.090531793903,0.0
-6340.036084100963,12358.518765518844,15616.80590207275,16784.56124472285,4055.5075889746995,2881.9525904930897,9527.965178247123,-26138.536748024606,0.0
-6341.203160633794,12358.816489124156,15615.11483199457,16781.417283450734,4050.9345543970794,2881.523868501438,9527.941360358698,-26126.62780381205,0.0
-6340.226627208364,12362.079539838396,15614.924288887169,16784.44215528072,4051.220369058181,2887.22825277925,9530.299331312783,-26119.66107144771,0.0
-6338.368831911207,12363.341887924926,15612.78067892891,16785.752139144104,4055.983946743201,2887.490249551926,9520.343453951089,-26129.890854526293,0.0
-6339.095277508172,12358.316313467229,15610.958610464388,16784.311156894386,4054.5906002703327,2879.0468081052272,9516.115778755635,-26152.696482693325,0.0
-6337.582841593178,12348.574797101362,15611.33969667919,16788.598376810904,4059.8305357238555,2880.797422904472,9516.389684472522,-26172.608237416713,0.0
-6343.14431854044,12345.657105769287,15611.923234945607,16782.596268927777,4053.31634323959,2878.8324471094015,9527.012462710118,-26192.317540088483,0.0
-6342.739414437213,12346.800364413692,15612.875950482608,16787.431300278073,4062.474321339041,2887.8951536551526,9533.00266164903,-26179.146247789402,0.0
-6341.322250075919,12351.1709469397,15615.269648269332,16784.537426834424,4058.5920055257498,2885.9301778600816,9519.664644130975,-26164.974604176467,0.0
-6343.013320154102,12355.315259525667,15617.865798107669,16779.47612554409,4049.850840473737,2874.6643166350086,9500.908056996206,-26146.3132885954,0.0
-6343.4420421457535,12354.064820383348,15616.210454862125,16781.357738729672,4051.2918227234563,2878.117910456648,9511.602288899077,-26118.601175412794,0.0
-6341.8938793981215,12355.51771157728,15617.937251772943,16783.739527572183,4053.685520510179,2877.093741254369,9530.537510197033,-26112.50379597597,0.0
-6340.48862398104,12353.874277275947,15619.556868185851,16789.027098802555,4062.0455993473897,2883.07203124907,9532.740664876355,-26122.423946505023,0.0
-6338.845189679709,12355.958342513144,15620.95021465872,16791.778064915652,4066.9163575303232,2886.025449413782,9524.17813398753,-26138.33429597299,0.0
-6340.262354041002,12352.326114528316,15613.650031856425,16781.750733888686,4052.5660797541996,2877.37955591547,9523.904228270641,-26157.793510816296,0.0
-6338.678464460733,12351.492488433438,15611.303969846553,16778.67822628185,4045.9208888835956,2873.2947880505653,9524.583038090757,-26172.072334927147,0.0
-6338.261651413293,12350.480228175371,15611.744600782416,16779.869120703104,4047.266599579614,2881.5595953340758,9523.868501438004,-26186.541702145394,0.0
-6338.166379859594,12350.742224948048,15611.458786121315,16782.73917625833,4056.6151207864664,2879.749435813768,9521.593893093408,-26177.109818329056,0.0
-6338.976188066047,12350.944676999661,15608.612548454517,16773.93846648525,4043.610553706361,2863.958175787925,9518.449931821293,-26163.64080242466,0.0
-6339.416819001911,12355.446257912005,15615.40064665567,16780.107299587355,4050.267653521177,2879.928069976956,9529.191799501015,-26144.68176323828,0.0
-6340.143264598877,12353.886186220161,15614.519384783942,16781.441101339162,4053.756974175454,2882.631400313205,9537.468515728739,-26123.59102303785,0.0
-6339.297729559786,12354.231545602324,15615.055287273506,16783.941979623796,4055.7338589147375,2878.8562649978267,9526.905282212205,-26110.336368129283,0.0
-6340.893528084268,12355.851162015231,15615.984184922087,16788.562649978267,4062.891134386481,2881.893045772027,9510.077944039871,-26113.73041722986,0.0
-6342.132058282373,12354.255363490749,15612.018506499306,16785.78786597674,4062.1765977337277,2881.023692844511,9508.136786133226,-26128.473690164996,0.0
-6341.929606230759,12355.160443250903,15612.41150165832,16785.525869204066,4061.938418849477,2884.7154655504014,9517.640123614841,-26148.302082278893,0.0
-6341.655700513871,12351.59966893135,15612.911677315247,16781.512555004436,4051.9349057109343,2876.3434777689786,9516.496864970437,-26170.333629072113,0.0
-6337.273209043652,12350.968494888086,15614.269296955477,16780.64320207692,4051.5895463287698,2879.05871704944,9526.393197611065,-26186.351159037993,0.0
-6336.356220339286,12353.243103232682,15614.626565281855,16782.524815262503,4055.0431401504097,2882.3574945963164,9523.439779446353,-26177.8124460376,0.0
-6343.6683120857915,12352.731018631543,15612.756861040483,16781.679280223412,4054.090424613406,2880.987966011873,9525.047486915046,-26160.24675332408,0.0
-6344.680572343859,12353.695643112758,15615.233921436695,16784.180158508047,4057.6035631561085,2881.0475107329357,9527.381639980707,-26129.200135761963,0.0
-6341.238887466432,12352.885834906307,15614.900470998742,16787.526571831775,4061.6526041883753,2884.5368313872136,9526.667103327954,-26101.797655128885,0.0
-6340.988799637968,12350.76604283647,15611.089608850727,16781.917459107663,4051.2560958908184,2871.579900083958,9522.844332235725,-26101.59520307727,0.0
-6338.487921353332,12352.087935644066,15610.029712815809,16778.69013522606,4048.3741313913815,2865.089525488118,9514.198438737414,-26115.207126312216,0.0
-6339.142913285022,12353.219285344258,15611.958961778242,16780.73847363062,4053.8403367849423,2874.414228806545,9514.055531406864,-26133.654080897457,0.0
-6340.48862398104,12354.91035542244,15614.638474226067,16782.798720979394,4056.0196735758395,2877.6058258555086,9514.912975390167,-26148.028176562006,0.0
-6339.6907247188,12356.279884006883,15616.210454862125,16784.83515043974,4057.127205387606,2876.927016035393,9516.449229193586,-26166.82049052941,0.0
-6343.501586866816,12349.086881702504,15611.232516181277,16780.631293132705,4053.983244115493,2876.903198146968,9518.938198534008,-26178.967613626213,0.0
-6342.870412823551,12348.634341822426,15609.74389815471,16779.05931249665,4051.5180926634944,2876.6054745416545,9506.624350218231,-26170.524172179514,0.0
-6342.441690831899,12351.730667317688,15611.625511340291,16782.084184326635,4055.102684871473,2878.0107299587353,9500.300700841368,-26151.053048391997,0.0
-6340.619622367379,12357.685139423964,15616.972627291727,16787.31221083595,4058.889729131064,2885.418093258942,9525.738205679376,-26132.248825480376,0.0
-6339.797905216713,12355.42244002358,15611.589784507654,16781.7626428329,4054.078515669193,2875.962391554177,9526.726648049016,-26115.14758159115,0.0
-6336.915940717276,12354.886537534014,15610.946701520175,16779.15458405035,4052.994801745851,2874.021233647531,9517.35430895374,-26101.02357375507,0.0
-6337.6304773700285,12353.409828451659,15612.13759594143,16781.34582978546,4054.173787222894,2877.534372190233,9514.543798119577,-26105.858605105364,0.0
-6341.095980135881,12348.146075109711,15606.445120607832,16775.60571867501,4049.052941211497,2872.8898839473386,9514.269892402688,-26123.424297818878,0.0
-6340.34571665049,12347.657808396996,15604.515871645399,16775.55808289816,4047.6953215712656,2868.5193014213323,9501.086691159395,-26141.454439356676,0.0
-6341.7033362907205,12355.66061890783,15613.947755461739,16783.858617014306,4054.340512441869,2880.1781578054197,9530.418420754908,-26163.188262544583,0.0
-6343.918399914256,12357.89950041979,15619.985590177503,16788.62219469933,4060.699888651371,2885.5252737568553,9538.635592261568,-26177.84817287023,0.0
-6344.561482901733,12356.470427114284,15617.067898845427,16787.502753943347,4062.0455993473897,2883.750841069185,9530.763780137073,-26173.108413073638,0.0
-6345.5141984387365,12351.706849429263,15612.733043152059,16782.774903090965,4057.532109490833,2880.6426066297095,9526.631376495316,-26154.30419016202,0.0
-6343.14431854044,12353.052560125281,15612.006597555093,16783.132171417343,4060.8427959819223,2886.882893397086,9533.800560911273,-26136.154959182095,0.0
-6340.7625296979295,12353.659916280123,15610.458434807462,16780.619384188492,4055.7457678589503,2879.9995236422315,9528.536807569324,-26116.112206072372,0.0
-6338.630828683883,12353.79091466646,15610.768067356988,16780.21448008527,4052.220720372035,2869.0194770782596,9514.484253398514,-26103.65545042604,0.0
-6340.405261371553,12352.11175353249,15611.327787734977,16778.142323792283,4051.8753609898718,2869.948374726838,9514.126985072138,-26108.026032952046,0.0
-6341.715245234934,12353.98145777386,15613.590487135363,16777.665966023782,4050.398651907515,2875.450306953037,9519.819460405737,-26129.65267564204,0.0
-6338.4998302975455,12353.648007335909,15614.245479067053,16779.499943432515,4048.4694029450816,2872.8660660589135,9514.31752817954,-26145.503480388943,0.0
-6339.119095396598,12350.658862338558,15611.125335683364,16777.880327019608,4048.731399717758,2876.641201374292,9516.37777552831,-26165.629596108156,0.0
-6347.669717341209,12355.493893688854,15612.292412216195,16776.77279520784,4047.3856890217394,2875.3788532877616,9517.878302499092,-26179.42015350629,0.0
-6345.7047415461375,12357.828046754516,15617.44898506023,16783.01308197522,4055.781494691588,2880.7736050160474,9522.48706390935,-26169.13082570665,0.0
-6346.204917203066,12352.445203970441,15614.507475839728,16778.178050624923,4054.673962879821,2874.4499556391825,9522.463246020925,-26153.065659963915,0.0
-6345.811922044051,12350.111050904783,15607.540743475387,16772.580846845023,4047.766775236541,2871.043997594393,9515.246425828118,-26126.830255863668,0.0
-6339.654997886162,12353.83855044331,15608.088554909165,16776.701341542568,4052.9709838574254,2875.771848446776,9515.556058377644,-26095.581186249932,0.0
-6336.70157972145,12354.600722872912,15611.303969846553,16779.166492994562,4053.0186196342765,2876.355386713191,9515.103518497566,-26086.32793659678,0.0
-6337.832929421642,12352.62383813363,15609.589081879945,16777.34442453004,4051.660999994045,2876.295841992128,9518.831018036095,-26100.499580209715,0.0
-6336.3085845624355,12354.731721259252,15612.161413829857,16776.80852204048,4050.1604730232643,2876.16484360579,9523.082511119977,-26113.96859611411,0.0
-6339.881267826201,12351.03994855336,15610.863338910689,16774.760183635917,4048.362222447169,2873.699692153792,9522.201249248248,-26135.178425756665,0.0
-6344.656754455434,12347.383902680107,15608.291006960777,16773.319201386203,4049.3387558725976,2875.2240370129985,9523.201600562103,-26160.85410947892,0.0
-6342.906139656188,12352.67147391048,15612.613953709933,16774.986453575955,4048.409858224019,2873.723510042217,9515.91332670402,-26176.681096337405,0.0
-6341.608064737021,12348.229437719197,15608.779273673492,16773.04529566931,4044.63472290864,2868.9599323571965,9510.661482306285,-26166.189316486147,0.0
-6342.3464192781985,12346.073918816726,15608.58873056609,16774.593458416944,4048.2074061724056,2874.4499556391825,9522.034524029272,-26147.25409518819,0.0
-6341.941515174973,12349.146426423566,15611.982779666669,16778.475774230235,4052.089721985697,2872.3301635693488,9514.65097861749,-26126.782620086815,0.0
-6341.393703741194,12349.741873634192,15612.578226877295,16776.701341542568,4049.672206310549,2870.091282057389,9513.591082582572,-26110.074371356604,0.0
-6335.081963308543,12356.113158787906,15616.98453623594,16781.607826558135,4054.9240507082845,2880.9284212908105,9528.965529560977,-26092.806402248407,0.0
-6329.925390464508,12363.246616371225,15619.985590177503,16786.02604486099,4062.7839538885673,2887.668883715114,9534.348372345048,-26088.86454171405,0.0
-6328.62731554534,12357.25641743231,15614.162116457564,16780.905198849596,4058.1037388130353,2884.358197224025,9525.047486915046,-26108.502390720547,0.0
-6335.760773128659,12345.43083582925,15604.253874872724,16772.85475256191,4051.9706325435714,2881.1070554539983,9527.250641594368,-26141.156715751364,0.0
-6339.0238238428965,12345.418926885037,15605.278044075003,16775.450902400247,4054.9240507082845,2881.071328621361,9521.427167874432,-26160.997016809473,0.0
-6343.037138042527,12344.811570730197,15605.337588796065,16773.819377043128,4048.4813118892944,2872.3897082904114,9503.53993366718,-26170.73853317534,0.0
-6344.632936567008,12344.525756069095,15606.064034393032,16771.866310192272,4046.194794600485,2872.342072513561,9517.44958050744,-26162.866721050843,0.0
-6340.464806092616,12343.09668276359,15605.659130289805,16768.079265932676,4041.967119405029,2858.218064677476,9514.531889175365,-26137.000494221185,0.0
-6338.368831911207,12350.742224948048,15610.82761207805,16773.93846648525,4046.6473344805618,2862.4338309287186,9510.9592059116,-26108.12130450575,0.0
-6337.046939103613,12355.982160401569,15616.103274364212,16782.19136482455,4058.5086429162625,2875.879028944689,9515.341697381818,-26101.106936364555,0.0
-6337.392298485777,12354.946082255077,15615.186285659844,16783.286987692107,4061.8193294073517,2881.1070554539983,9524.45203970442,-26097.248438439692,0.0
-6337.5947505373915,12351.397216879737,15607.683650805937,16776.93952042682,4056.6032118422536,2880.1543399169946,9527.965178247123,-26099.749316724326,0.0
-6336.249039841373,12359.781113605373,15614.102571736501,16780.440750025307,4059.1517259037405,2882.476584038442,9521.474803651281,-26116.278931291345,0.0
-6336.677761833024,12365.18777427787,15620.295222727029,16783.96579751222,4060.6403439303085,2884.98937126729,9523.963772991705,-26139.870549776406,0.0
-6336.880213884638,12360.900554361353,15619.818864958528,16783.25126085947,4060.699888651371,2883.7865679018223,9528.14381241031,-26157.591058764687,0.0
-6338.690373404946,12351.575851042926,15614.817108389256,16779.28558243669,4056.0434914642638,2876.4982940437417,9519.03347008771,-26167.737479233776,0.0
-6337.940109919555,12344.573391845946,15605.254226186576,16772.604664733448,4052.304082981523,2876.403022490041,9514.841521724891,-26160.31820698936,0.0
-6336.868304940425,12340.953072805329,15600.395376947856,16767.293275614647,4046.7545149784746,2870.9249081522676,9513.591082582572,-26139.668097724796,0.0
-6336.4991276698365,12340.476715036828,15602.51516901769,16768.55562370118,4046.742606034262,2868.7574803055836,9518.47374970972,-26115.17139947958,0.0
-6337.201755378377,12343.608767364729,15607.755104471213,16770.163331169875,4046.26624826576,2873.139971775802,9525.333301576147,-26096.224269237413,0.0
-6335.641683686532,12348.396162938174,15613.411852972175,16778.189959569136,4057.1391143318187,2890.503212437701,9532.038037167815,-26086.030212991467,0.0
-6334.92714703378,12352.004573034577,15615.710279205197,16781.941276996087,4066.344728208121,2888.2405130373163,9527.965178247123,-26089.638623087867,0.0
-6337.797202589005,12349.765691522618,15612.92358625946,16774.95072674332,4056.1625809063894,2875.2121280687857,9524.714036477095,-26106.061057156978,0.0
-6337.832929421642,12351.099493274423,15614.23357012284,16778.975949887164,4059.7352641701546,2882.8100344763934,9523.058693231551,-26119.85161455511,0.0
-6337.451843206841,12350.80176966911,15613.650031856425,16781.48873711601,4062.569592892742,2883.0482133606442,9517.330491065315,-26141.394894635614,0.0
-6339.893176770413,12349.58705735943,15609.66053554522,16774.926908854897,4054.1976051113184,2874.580954025521,9510.994932744237,-26155.721354523313,0.0
-6336.999303326763,12353.612280503272,15612.518682156233,16778.023234350156,4055.7457678589503,2873.3424238274156,9506.267081891854,-26141.573528798806,0.0
-6336.737306554087,12354.612631817126,15616.067547531573,16781.048106180147,4058.5443697489,2876.7960176490556,9504.171107710445,-26129.890854526293,0.0
-6339.297729559786,12348.455707659235,15614.37647745339,16777.987507517522,4057.710743654021,2882.0716799352153,9509.863583044045,-26119.148986846572,0.0
-6337.011212270976,12349.194062200415,15616.531996355861,16778.975949887164,4057.210567997094,2881.1308733424235,9518.985834310859,-26091.73459726928,0.0
-6335.77268207287,12352.361841360955,15617.282259841255,16780.51220369058,4059.6876283933047,2878.522814559875,9519.521736800423,-26081.076092199044,0.0
-6338.547466074395,12353.826641499098,15614.960015719806,16776.71325048678,4055.1503206483226,2876.748381872205,9517.902120387518,-26091.87750459983,0.0
-6339.083368563959,12348.360436105537,15609.74389815471,16773.736014433638,4051.3513674445194,2872.8660660589135,9519.533645744637,-26108.800114325863,0.0
-6338.845189679709,12346.633639194717,15607.326382479561,16771.020775153178,4046.599698703711,2871.103542315456,9524.332950262295,-26133.904168725923,0.0
-6339.571635276675,12348.753431264551,15610.31552747691,16773.521653437812,4050.1009283022017,2877.117559142794,9527.107734263818,-26152.124853371122,0.0
-6341.429430573833,12348.955883316165,15610.613251082224,16774.355279532694,4051.54191055192,2875.6051232278,9521.427167874432,-26166.53467586831,0.0
-6341.262705354857,12348.550979212938,15610.339345365335,16775.36753979076,4051.5895463287698,2872.4016172346237,9515.103518497566,-26161.390011968488,0.0
-6339.6311799977375,12349.980052518444,15611.565966619228,16776.403617937252,4054.626327102971,2877.0341965333064,9521.534348372345,-26140.20400021436,0.0
-6340.548168702103,12348.574797101362,15609.624808712584,16774.43864214218,4051.1489153929056,2871.6513537492333,9507.850971472124,-26113.420784680333,0.0
-6340.464806092616,12349.670419968917,15610.255982755849,16775.486629232884,4053.0662554111263,2874.092687312806,9518.116481383344,-26094.187839777067,0.0
-6336.915940717276,12351.766394150327,15612.82831470576,16779.309400325114,4060.3664382134198,2883.083940193282,9529.572885715817,-26081.29045319487,0.0
-6336.808760219363,12351.980755146153,15611.446877177103,16777.76123757748,4059.3779958437785,2882.5956734805677,9524.856943807647,-26088.04282456339,0.0
-6337.773384700579,12349.479876861516,15608.934089948256,16776.177347997214,4057.8298330961466,2883.5722069059966,9532.06185505624,-26107.799763012008,0.0
-6337.713839979517,12349.527512638366,15610.363163253762,16776.67752365414,4058.091829868823,2886.9424381181484,9536.003715590594,-26126.85407375209,0.0
-6337.832929421642,12352.921561738944,15614.007300182802,16779.690486539916,4060.0448967196808,2888.3119667025917,9535.22963421678,-26144.253041246626,0.0
-6338.4998302975455,12351.778303094537,15613.316581418474,16780.012028033656,4059.4137226764155,2883.2506654122576,9531.942765614114,-26158.436593803777,0.0
-6337.713839979517,12351.611577875563,15613.86439285225,16780.202571141057,4058.5562786931123,2879.892343144318,9527.322095259646,-26150.70768900983,0.0
-6336.737306554087,12351.4567616008,15613.090311478434,16779.75003126098,4058.758730744726,2882.00022626994,9523.975681935917,-26131.52237988341,0.0
-6337.035030159402,12352.504748691505,15612.78067892891,16778.54722789551,4058.8301844100015,2882.6433092574175,9523.082511119977,-26110.84845273042,0.0
-6336.463400837199,12351.96884620194,15610.672795803286,16776.403617937252,4057.9251046498475,2879.535074817942,9518.533294430783,-26087.721283069648,0.0
-6334.212610381027,12352.790563352604,15611.839872336117,16777.058609868942,4059.020727517402,2880.2853383033325,9522.415610244074,-26066.880630697684,0.0
-6335.129599085392,12357.065874324911,15618.175430657195,16781.834096498173,4059.901989389131,2883.500753240721,9529.608612548454,-26074.657171268478,0.0
-6335.260597471731,12356.672879165897,15615.698370260983,16781.500646060224,4059.8662625564925,2884.7750102714645,9532.264307107853,-26107.38294996457,0.0
-6336.773033386725,12354.44590659815,15612.244776439344,16778.773497835547,4056.114945129539,2884.489195610363,9529.001256393614,-26129.402587813576,0.0
-6339.083368563959,12350.444501342734,15606.349849054131,16774.80781941277,4056.984298057056,2888.621599252118,9524.96412430556,-26142.633424833723,0.0
-6337.844838365854,12356.017887234206,15611.041973073878,16776.296437439338,4059.8662625564925,2884.0842915071366,9522.49897285356,-26151.827129765807,0.0
-6335.570230021258,12356.58951655641,15616.674903686413,16781.893641219238,4061.2715179735737,2887.22825277925,9539.195312639557,-26146.634830089137,0.0
-6339.5954531651,12349.527512638366,15611.006246241239,16777.24915297634,4056.317397181153,2884.679738717764,9539.67167040806,-26127.89015189858,0.0
-6339.6311799977375,12352.20702508619,15611.982779666669,16777.09433670158,4057.3296574392193,2883.643660571272,9534.300736568199,-26105.727606719025,0.0
-6336.892122828851,12362.186720336309,15621.414663483009,16788.788919918305,4071.5965726058553,2889.8601294502237,9533.455201529106,-26081.731084130734,0.0
-6334.200701436814,12362.15099350367,15621.021668323994,16787.300301891737,4067.9524356768147,2879.6541642600673,9519.450283135147,-26069.083785377006,0.0
-6333.307530620873,12355.14853430669,15610.31552747691,16777.916053852245,4057.4249289929203,2876.200570438428,9515.151154274417,-26070.143681411922,0.0
-6333.569527393549,12355.946433568932,15607.493107698536,16776.77279520784,4057.1867501086685,2877.069923365944,9507.255524261496,-26087.60219362752,0.0
-6333.045533848196,12354.088638271773,15606.20694172358,16775.55808289816,4060.5569813208203,2883.9771110092233,9530.918596411833,-26106.561232813903,0.0
-6334.5341518747655,12349.420332140455,15607.397836144835,16769.436885572908,4053.721247342817,2884.786919215677,9532.645393322655,-26129.521677255703,0.0
-6335.6297747423205,12342.4416908319,15609.803442875771,16765.244937210093,4044.6704497412784,2875.5217606183123,9523.034875343126,-26141.240078360854,0.0
-6337.880565198492,12339.940812547262,15609.83916970841,16767.555272387326,4048.04068095343,2880.190066749632,9528.763077509362,-26134.6425232671,0.0
-6339.1786401176605,12345.942920430389,15611.589784507654,16770.90168571105,4050.815464954954,2883.012486528007,9531.77604039514,-26117.970001369526,0.0
-6335.296324304369,12351.694940485051,15615.888913368384,16775.534265009734,4053.4592505701407,2885.5610005894923,9534.622278061937,-26098.915690629445,0.0
-6335.153416973818,12350.122959848994,15613.090311478434,16776.236892718272,4055.305136923086,2888.3715114236547,9537.099338458149,-26080.849822259006,0.0
-6338.214015636444,12349.134517479351,15610.422707974823,16774.355279532694,4058.8778201868513,2881.178509119274,9529.894427209554,-26061.926509905265,0.0
-6339.988448324113,12348.539070268725,15610.672795803286,16772.271214295495,4055.0550490946225,2873.080427054739,9516.6516812452,-26068.357339780043,0.0
-6339.27391167136,12349.551330526792,15613.5309424143,16776.082076443512,4057.9727404266973,2878.677630834638,9524.761672253946,-26086.982928528472,0.0
-6338.249742469081,12347.681626285423,15607.338291423774,16770.723051547866,4052.1135398741226,2871.5322643071077,9512.55500443608,-26108.145122394173,0.0
-6338.559375018608,12350.158686681632,15605.540040847678,16769.38924979606,4051.887269934084,2876.72456398378,9519.08110586456,-26125.948993991937,0.0
-6339.428727946124,12348.896338595101,15607.13583937216,16770.437236886763,4052.2802650930976,2882.7981255321806,9532.49057704789,-26143.300325709624,0.0
-6339.535908444036,12344.45430240382,15606.504665328895,16771.556677642744,4054.304785609232,2885.727725808468,9532.407214438404,-26138.441476470904,0.0
-6338.976188066047,12344.561482901732,15607.969465467038,16772.414121626047,4054.126151446043,2884.6916476619767,9530.75187119286,-26120.16124710464,0.0
-6337.6304773700285,12341.226978522218,15606.957205208973,16771.556677642744,4053.9594262270675,2884.0485646744987,9530.870960634986,-26097.748614096618,0.0
-6336.439582948774,12344.561482901732,15606.659481603658,16771.485223977466,4053.530704235416,2881.0951465097864,9525.369028408786,-26077.53913576792,0.0
-6335.582138965469,12351.218582716549,15610.35125430955,16774.117100648444,4055.3646816441487,2874.9144044634722,9512.73363859927,-26061.616877355737,0.0
-6333.486164784061,12352.802472296817,15613.983482294376,16779.368945046175,4062.212324566365,2880.5830619086464,9533.324203142769,-26065.880279383833,0.0
-6330.711380782537,12346.550276585229,15608.779273673492,16775.141269850723,4057.8298330961466,2879.928069976956,9528.012814023972,-26077.586771544768,0.0
-6333.045533848196,12343.989853579531,15606.588027938382,16771.699584973292,4053.399705849078,2875.164492291936,9513.38863053096,-26096.1170887395,0.0
-6336.915940717276,12348.491434491874,15610.648977914863,16775.427084511823,4056.1983077390273,2876.0457541636647,9522.225067136673,-26117.529370433662,0.0
-6336.022769901334,12351.1709469397,15614.578929505005,16780.071572754714,4061.8669651842015,2879.797071590618,9524.583038090757,-26131.33183677601,0.0
-6336.999303326763,12349.07497275829,15611.006246241239,16774.319552700053,4054.662053935608,2873.3066969947777,9513.043271148797,-26125.079641064418,0.0
-6335.7012284075945,12349.896689908956,15610.815703133838,16775.796261782412,4056.6508476191043,2880.3329740801832,9522.094068750335,-26113.027789521322,0.0
-6332.890717573434,12348.574797101362,15610.279800644272,16776.30834638355,4057.448746881345,2879.8566163116807,9525.333301576147,-26091.93704932089,0.0
-6329.580031082344,12349.336969530967,15612.066142276155,16777.618330246933,4060.3307113807823,2879.5112569295165,9522.094068750335,-26070.798673343612,0.0
-6329.84202785502,12347.038543297944,15609.827260764196,16774.85545518962,4058.3300087530733,2877.415282748108,9519.759915684675,-26057.639289988747,0.0
-6327.877052059949,12346.800364413692,15608.279098016565,16773.247747720925,4056.8175728380797,2875.5217606183123,9512.769365431908,-26059.937716221768,0.0
-6327.710326840974,12346.609821306292,15606.861933655271,16774.39100636533,4057.806015207722,2879.1778064915657,9520.29581817424,-26071.727570992192,0.0
-6330.9138328341505,12344.561482901732,15603.82515288107,16771.890128080693,4054.352421386082,2876.486385099529,9519.962367736287,-26090.019709302673,0.0
-6330.806652336237,12348.37234504975,15609.66053554522,16776.367891104615,4057.7226525982337,2878.844356053614,9517.25903740004,-26109.514650978614,0.0
-6331.00910438785,12346.252552979915,15611.518330842378,16776.213074829848,4056.9128443917807,2878.6180861135754,9520.53399705849,-26131.701014046597,0.0
-6331.0567401647,12348.65815971085,15611.42305928868,16773.569289214665,4054.0308798923434,2873.3662417158407,9498.859718591648,-26121.66177407542,0.0
-6331.973728869067,12351.814029927176,15611.89941705718,16775.46281134446,4056.6984833959546,2878.129819400861,9517.640123614841,-26110.56263806932,0.0
-6332.54535819127,12353.243103232682,15611.958961778242,16774.72445680328,4056.7818460054427,2882.6433092574175,9533.455201529106,-26089.900619860546,0.0
-6331.342554825802,12356.756241775385,15616.353362192674,16777.73741968906,4060.8189780934968,2887.5736121614136,9532.002310335178,-26069.36960003811,0.0
-6328.6868602664035,12354.481633430787,15613.792939186977,16774.081373815803,4056.889026503355,2880.201975693845,9528.929802728338,-26055.436135309425,0.0
-6325.8168047111785,12350.89704122281,15608.612548454517,16767.186095116736,4047.540505296503,2873.652056376942,9527.643636753382,-26061.545423690462,0.0
-6327.793689450462,12354.207727713898,15613.709576577488,16775.141269850723,4057.2820216623695,2885.0846428209907,9533.145568979582,-26080.885549091647,0.0
-6328.127139888413,12354.410179765513,15615.281557213544,16779.833393870464,4061.938418849477,2888.1928772604665,9531.69267778565,-26100.34476393495,0.0
-6330.639927117261,12355.553438409917,15615.615007651497,16780.64320207692,4060.7237065397967,2885.1680054304784,9525.321392631935,-26116.71956222721,0.0
-6332.009455701705,12354.803174924527,15613.566669246939,16778.666317337636,4062.3314140084913,2884.358197224025,9533.205113700644,-26132.296461257225,0.0
-6329.341852198093,12353.42173739587,15611.685056061353,16778.189959569136,4062.3314140084913,2889.2527732953836,9537.4327888961,-26122.995575827226,0.0
-6327.198242239834,12349.610875247854,15607.076294651099,16774.43864214218,4059.0921811826765,2890.634210824039,9538.87377114582,-26101.547567300422,0.0
-6324.209097242484,12352.683382854691,15611.816054447692,16781.82218755396,4071.38221161003,2893.9925330919787,9536.849250629686,-26080.67118809582,0.0
-6323.613650031856,12359.769204661161,15617.87770705188,16782.4295437088,4072.2158377049077,2888.812142359519,9527.238732650156,-26062.04559934739,0.0
-6325.161812779488,12362.448717108984,15617.27035089704,16777.677874967994,4065.1061980100153,2886.9186202297237,9529.632430436879,-26050.60110395913,0.0
-6326.9481544113705,12361.63890890253,15614.674201058704,16777.951780684885,4061.342971638849,2884.917917602015,9531.025776909748,-26054.519146605056,0.0
-6327.305422737747,12367.128932184516,15617.377531394954,16777.558785525867,4061.5216058020374,2883.4054816870207,9532.335760773129,-26070.32231557511,0.0
-6328.06759516735,12360.817191751865,15618.365973764596,16780.64320207692,4065.130015898441,2886.847166564448,9536.384801805394,-26094.21165766549,0.0
-6330.854288113088,12345.764286267202,15610.160711202147,16775.629536563436,4059.71144628173,2881.654866887776,9520.260091341603,-26115.445305196467,0.0
-6329.758665245533,12348.610523934,15612.435319546747,16778.463865286023,4063.9510304213977,2886.180265688545,9530.644690694948,-26127.056525803706,0.0
-6328.639224489552,12350.396865565883,15614.983833608232,16778.463865286023,4064.153482473011,2885.6681810874056,9533.860105632335,-26123.126574213562,0.0
-6330.985286499425,12350.218231402696,15615.043378329294,16775.772443893984,4060.163986161807,2882.5123108710795,9531.77604039514,-26110.646000678807,0.0
-6330.687562894112,12349.229789033052,15613.614305023788,16773.092931446165,4059.7828999470053,2884.834554992527,9534.515097564024,-26088.590635997167,0.0
-6328.2343203863265,12348.110348277072,15611.018155185453,16770.854049934205,4057.675016821384,2887.6927016035393,9536.694434354922,-26070.4056781846,0.0
-6327.805598394674,12345.6690147135,15607.314473535349,16767.674361829453,4051.946814655147,2883.798476846035,9526.78619277008,-26060.545072376608,0.0
-6325.995438874366,12348.65815971085,15610.124984369511,16773.18820299986,4059.85435361228,2876.986560756456,9514.996337999653,-26059.366086899565,0.0
-6324.447276126734,12352.052208811427,15615.48400926516,16779.619032874638,4065.070471177378,2884.405833000875,9532.76448276478,-26077.12232272048,0.0
-6326.614703973419,12350.777951780685,15614.293114843904,16778.499592118664,4063.069768549669,2882.774307643756,9531.013867965536,-26100.356672879163,0.0
-6325.804895766966,12350.837496501748,15611.970870722454,16773.628833935727,4057.8655599287845,2877.0103786448813,9506.636259162444,-26115.492940973316,0.0
-6324.971269672087,12354.410179765513,15614.447931118666,16775.450902400247,4059.8305357238555,2879.1063528262903,9512.209645053917,-26127.41379413008,0.0
-6324.804544453111,12355.743981517318,15617.27035089704,16776.903793594178,4061.7240578536507,2884.9060086578024,9536.003715590594,-26128.9500479335,0.0
-6324.649728178349,12351.766394150327,15614.23357012284,16773.676469712576,4057.1510232760315,2876.5459298205915,9520.319636062666,-26108.35948339,0.0
-6322.768114992765,12353.850459387522,15617.377531394954,16776.975247259452,4060.4259829344833,2878.475178783025,9520.319636062666,-26082.44562078349,0.0
-6318.421350355185,12353.302647953744,15614.74565472398,16773.08102250195,4055.4242263652113,2870.0555552247515,9513.733989913124,-26055.48377108627,0.0
-6317.087548603378,12353.052560125281,15614.817108389256,16774.462460030605,4058.2704640320108,2879.6779821484924,9511.316474237976,-26044.4084529686,0.0
-6323.494560589731,12352.445203970441,15614.662292114492,16775.903442280327,4060.687979707159,2882.929123918519,9529.096527947315,-26059.00881857319,0.0
-6327.079152797709,12350.43259239852,15612.554408988872,16773.616924991515,4057.6035631561085,2882.6433092574175,9525.261847910873,-26077.16995849733,0.0
-6329.722938412895,12350.301594012182,15611.637420284504,16771.54476869853,4055.340863755723,2883.5245711291464,9532.502485992105,-26099.86840616645,0.0
-6330.187387237184,12351.611577875563,15610.946701520175,16771.53285975432,4055.7219499705247,2883.965202065011,9539.886031403885,-26115.83830035548,0.0
-6327.245878016684,12355.231896916179,15611.649329228718,16772.71184523136,4057.794106263509,2883.07203124907,9536.956431127599,-26120.39942598889,0.0
-6329.8896636318705,12352.62383813363,15611.053882018088,16772.283123239707,4058.03228514776,2884.393924056663,9529.418069441053,-26117.112557386226,0.0
-6329.508577417069,12348.134166165499,15611.970870722454,16774.224281146355,4060.997612256686,2884.965553378865,9520.653086500615,-26105.120250564185,0.0
-6327.4364211240845,12350.599317617496,15614.817108389256,16776.617978933078,4062.3314140084913,2881.678684776201,9522.975330622065,-26077.42004632579,0.0
-6326.7576113039695,12350.873223334385,15613.197491976349,16776.48698054674,4063.355583210771,2887.2401617234623,9536.777796964408,-26061.700239965227,0.0
-6325.233266444763,12351.933119369301,15613.792939186977,16777.18960825528,4065.2252874521405,2889.4433164027846,9534.824730113553,-26046.432973484734,0.0
-6324.792635508899,12351.480579489225,15613.054584645799,16775.939169112964,4064.153482473011,2886.739986066535,9530.620872806521,-26054.45960188399,0.0
-6325.006996504724,12351.909301480877,15612.983130980521,16774.474368974817,4060.211621938657,2885.7515436968933,9528.739259620937,-26074.78816965482,0.0
-6327.78178050625,12350.968494888086,15611.637420284504,16771.699584973292,4055.102684871473,2883.1315759701324,9527.679363586021,-26095.783638301546,0.0
-6328.99649281593,12349.694237857342,15610.244073811637,16772.580846845023,4057.710743654021,2886.0016315253574,9531.895129837265,-26111.384355219987,0.0
-6328.3057740516015,12349.944325685807,15610.029712815809,16774.1766453695,4063.450854764471,2888.8478691921564,9532.192853442577,-26121.447413079593,0.0
-6327.245878016684,12351.313854270249,15612.816405761547,16776.77279520784,4064.6893849625762,2884.5844671640634,9526.03592928469,-26116.005025574457,0.0
-6328.198593553688,12349.241697977264,15610.291709588486,16773.343019274627,4058.9135470194888,2882.3813124847416,9528.727350676727,-26100.55912493078,0.0
-6326.567068196569,12349.467967917304,15608.826909450343,16771.890128080693,4055.8410394126504,2885.9897225811446,9533.00266164903,-26078.09885614591,0.0
-6325.447627440589,12348.97970120459,15608.457732179753,16773.319201386203,4061.02143014511,2885.5014558684297,9530.52560125282,-26056.972389112845,0.0
-6323.601741087643,12347.62208156436,15607.016749930035,16768.627077366455,4058.07992092461,2875.617032172013,9517.08040323685,-26047.028420695362,0.0
-6322.101214116862,12347.598263675933,15608.231462239715,16771.699584973292,4062.0932351242395,2875.4622158972493,9509.923127765107,-26048.457494000868,0.0
-6324.744999732048,12347.467265289595,15607.576470308024,16769.139161967596,4058.663459191025,2873.3424238274156,9508.0176966911,-26064.177300361436,0.0
-6327.769871562036,12348.729613376125,15606.957205208973,16766.7692820693,4055.8410394126504,2875.3788532877616,9518.426113932868,-26084.17241769431,0.0
-6326.543250308144,12354.791265980315,15611.470695065529,16770.532508440465,4059.568538951179,2879.3802585431786,9521.546257316557,-26101.047391643493,0.0
-6324.911724951025,12355.493893688854,15614.23357012284,16772.09258013231,4057.544018435046,2878.284635675624,9522.784787514662,-26112.33707075699,0.0
-6324.625910289923,12352.635747077842,15610.279800644272,16769.38924979606,4053.0662554111263,2875.7480305583504,9524.273405541233,-26108.764387493226,0.0
-6325.661988436415,12353.493191061147,15607.755104471213,16765.983291751272,4050.3510161306654,2873.4257864369033,9519.54555468885,-26099.40395734216,0.0
-6324.923633895237,12354.16009193705,15609.958259150535,16770.210966946725,4055.3884995325743,2878.2489088429866,9519.17637741826,-26077.384319493158,0.0
-6324.375822461459,12346.990907521093,15604.765959473863,16767.56718133154,4053.5187952912033,2873.675874265367,9514.0912582395,-26052.14926670676,0.0
-6324.066189911933,12350.313502956395,15610.934792575963,16769.972788062474,4057.710743654021,2877.5581900786588,9525.273756855086,-26041.93139257239,0.0
-6323.30401748233,12345.371291108188,15609.51762821467,16768.853347306493,4056.984298057056,2879.9161610327437,9529.048892170464,-26051.26800483503,0.0
-6322.220303558987,12350.873223334385,15612.935495203672,16771.044593041603,4057.9608314824845,2883.7865679018223,9532.395305494192,-26070.92967172995,0.0
-6324.375822461459,12348.360436105537,15612.375774825683,16771.794856526994,4059.342269011141,2885.6919989758308,9533.300385254346,-26090.781881732273,0.0
-6326.9838812440075,12342.405963999261,15608.088554909165,16769.7107912898,4058.0561030361855,2882.6790360900554,9531.883220893053,-26108.04985084047,0.0
-6328.150957776838,12344.954478060747,15610.434616919036,16770.60396210574,4059.6042657838166,2885.418093258942,9533.097933202731,-26121.459322023806,0.0
-6328.555861880065,12347.181450628494,15611.70887394978,16770.580144217314,4058.568187637325,2883.9294752323735,9533.03838848167,-26117.64845987579,0.0
-6327.865143115737,12347.10999696322,15610.577524249587,16768.400807426417,4054.9121417640717,2877.724915297634,9527.977087191333,-26100.642487540266,0.0
-6329.79439207817,12347.324357959043,15609.088906223018,16768.74616680858,4055.769585747376,2881.1666001750614,9507.886698304761,-26075.586068917062,0.0
-6328.3057740516015,12345.276019554485,15606.230759612006,16767.6267260526,4057.8298330961466,2882.5480377037175,9507.064981154097,-26053.17343590904,0.0
-6326.019256762791,12344.239941407996,15604.349146426423,16764.04213384462,4055.5194979189123,2878.49899667145,9530.287422368569,-26044.753812350766,0.0
-6324.792635508899,12349.313151642542,15608.945998892468,16768.019721211618,4055.7934036358006,2876.4625672111038,9514.543798119577,-26046.290066154186,0.0
-6324.971269672087,12354.946082255077,15615.460191376733,16773.438290828326,4058.985000684764,2877.200921752282,9516.8422243526,-26058.04419409197,0.0
-6324.173370409846,12354.517360263426,15617.818162330817,16779.797667037827,4067.9643446210275,2889.3361359048713,9546.07868239441,-26082.2669866203,0.0
-6326.960063355584,12351.194764828124,15614.209752234416,16775.76053494977,4063.581853150809,2890.16976199975,9540.707748554552,-26106.35878076229,0.0
-6331.044831220488,12350.932768055447,15610.92288363175,16771.651949196443,4058.9730917405514,2882.3932214289543,9527.429275757559,-26121.125871585853,0.0
-6332.557267135482,12348.967792260377,15610.803794189625,16771.711493917504,4059.2350885132278,2876.2362972710653,9517.675850447478,-26116.20747762607,0.0
-6332.366724028081,12348.074621444435,15611.685056061353,16773.46210871675,4062.2004156221533,2877.9511852376727,9520.081457178412,-26098.808510131534,0.0
-6333.521891616699,12346.657457083144,15609.600990824158,16770.60396210574,4059.020727517402,2878.891991830464,9523.022966398914,-26079.456475786137,0.0
-6330.223114069821,12349.491785805729,15612.220958550919,16771.997308578608,4061.676422076801,2880.0471594190817,9515.40124210288,-26054.733507600882,0.0
-6323.25638170548,12355.029444864565,15616.877355738026,16777.165790366857,4067.7738015136265,2884.4534687777254,9521.355714209156,-26034.14294305738,0.0
-6324.125734632996,12353.540826837998,15615.25773932512,16775.736717061347,4066.4280908176083,2884.98937126729,9532.311942884702,-26039.192335403503,0.0
-6326.281253535467,12350.718407059623,15611.006246241239,16769.62742868031,4056.9366622802054,2875.2121280687857,9521.843980921873,-26058.020376203545,0.0
-6328.103321999988,12351.706849429263,15612.471046379382,16773.164385111435,4063.1769490475817,2887.204434890825,9533.74101619021,-26082.44562078349,0.0
-6330.223114069821,12349.991961462656,15610.696613691713,16770.723051547866,4060.22353088287,2889.395680625934,9533.907741409184,-26104.02462769663,0.0
-6330.389839288798,12349.801418355255,15609.338994051483,16768.88907413913,4056.758028117017,2890.2531246092376,9536.575344912797,-26113.58750989931,0.0
-6329.615757914982,12349.205971144629,15606.957205208973,16767.2456398378,4055.1503206483226,2883.67938740391,9530.108788205382,-26103.11954793648,0.0
-6324.685455010986,12357.89950041979,15615.805550758896,16773.962284373676,4061.0809748661727,2887.192525946612,9538.23068815834,-26087.17347163587,0.0
-6322.410846666388,12361.746089400443,15619.473505576361,16775.569991842374,4062.1765977337277,2893.8377168172156,9544.399521260442,-26077.562953656343,0.0
-6322.339393001113,12359.947838824348,15617.699072888692,16774.200463257926,4062.8554075538427,2890.1221262228996,9537.325608398187,-26053.066255411126,0.0
-6323.577923199219,12353.540826837998,15613.745303410125,16773.605016047302,4066.1422761565073,2887.3711601098007,9532.883572206905,-26034.64311871431,0.0
-6324.47109401516,12348.4199808266,15609.279449330419,16772.366485849197,4064.8561101815517,2885.45382009158,9530.454147587545,-26039.644875283582,0.0
-6323.768466306619,12348.396162938174,15607.219201981648,16771.83058335963,4063.8319409792725,2883.858021567098,9525.535753627762,-26061.426334248335,0.0
-6324.340095628822,12348.146075109711,15605.813946564567,16770.23478483515,4060.0091698870433,2881.714411608839,9528.632079123025,-26080.123376662043,0.0
-6324.292459851972,12356.26797506267,15613.673849744851,16773.176294055647,4059.223179569015,2889.217046462746,9536.777796964408,-26096.593446508,0.0
-6324.637819234135,12357.792319921877,15618.925694142587,16778.35668478811,4070.1317724677115,2897.005495977754,9536.539618080158,-26107.668764625672,0.0
-6325.459536384801,12350.52786395222,15611.625511340291,16772.96193305982,4069.3696000381083,2888.704961861606,9539.207221583769,-26107.04949952662,0.0
-6326.650430806058,12349.551330526792,15606.278395388856,16766.41201374292,4059.127908015315,2881.1666001750614,9533.240840533283,-26088.173822949724,0.0
-6326.995790188221,12356.232248230031,15611.93514388982,16770.74686943629,4059.9734430544063,2886.799530787598,9532.978843760606,-26066.15418510072,0.0
-6324.542547680436,12353.898095164373,15614.626565281855,16776.475071602526,4066.5352713155216,2891.8370141895066,9535.860808260044,-26042.145753568217,0.0
-6324.697363955198,12347.312449014831,15609.291358274631,16769.222524577082,4057.5916542118957,2878.0821836240107,9516.806497519961,-26025.890044718086,0.0
-6324.733090787837,12354.088638271773,15614.483657951305,16769.829880731926,4056.889026503355,2874.985858128747,9521.248533711243,-26029.081641767047,0.0
-6326.9481544113705,12352.24275191883,15617.365622450741,16772.509393179746,4060.306893492357,2879.928069976956,9519.557463633062,-26045.408804282455,0.0
-6329.865845743446,12347.562536843296,15615.996093866299,16775.09363407387,4066.0112777701693,2890.0506725576247,9538.754681703693,-26071.84666043432,0.0
-6332.092818311193,12351.718758373476,15617.210806175977,16774.653003138006,4061.4620610809748,2881.8573189393896,9527.000553765905,-26094.152112944426,0.0
-6332.247634585956,12352.373750305167,15616.591541076925,16774.56964052852,4061.354880583062,2877.2366485849197,9517.783030945391,-26101.07120953192,0.0
-6328.615406601128,12354.422088709725,15617.496620837079,16775.83198861505,4064.5107507993876,2881.357143282462,9525.273756855086,-26093.913934060176,0.0
-6324.733090787837,12356.339428727946,15620.723944718682,16779.452307655665,4068.8813333253943,2888.5620545310553,9529.298979998928,-26083.14824849203,0.0
-6322.3274840569,12361.16255113403,15625.987698060628,16782.477179485653,4070.7867643994023,2889.574314789122,9534.622278061937,-26068.404975556892,0.0
-6319.552700055377,12362.365354499496,15627.762130748297,16783.25126085947,4070.6438570688515,2890.491303493489,9533.014570593245,-26042.562566615656,0.0
-6321.827308399974,12362.770258602723,15628.119399074676,16785.013784602925,4071.703753103769,2890.4079408840007,9525.916839842565,-26034.88129759856,0.0
-6324.56636556886,12364.544691290394,15627.404862421923,16786.002226972567,4072.954192246086,2888.550145586843,9522.248885025097,-26037.132088054732,0.0
-6324.113825688783,12363.520522088113,15624.284719038234,16783.370350301593,4072.847011748174,2890.014945724987,9538.611774373143,-26048.493220833505,0.0
-6323.911373637169,12364.913868560981,15625.773337064802,16785.573504980915,4074.692898101119,2892.575368730685,9537.015975848662,-26061.986054626326,0.0
-6322.958658100166,12365.866584097987,15626.41642005228,16785.394870817727,4075.2526184791086,2895.9575088870497,9540.2790265629,-26087.566466794888,0.0
-6324.5306387362225,12364.890050672559,15627.34531770086,16784.62078944391,4075.097802204345,2897.458035857831,9539.874122459672,-26105.20361317367,0.0
-6326.090710428067,12355.065171697204,15621.402754538796,16781.29819400861,4073.6687288988396,2895.6478763375235,9537.230336844486,-26097.641433598703,0.0
-6322.125032005288,12360.221744541237,15625.177889854174,16783.620438130056,4075.5979778612723,2895.6955121143733,9533.84819668812,-26077.717769931107,0.0
-6322.827659713828,12355.910706736295,15620.319040615454,16777.42778713953,4067.0949916935115,2888.9312318016446,9538.26641499098,-26059.449449509055,0.0
-6321.339041687259,12353.397919507446,15618.211157489832,16778.08277907122,4068.2739771705537,2888.0261520414906,9521.355714209156,-26034.988478096475,0.0
-6320.160056210216,12350.706498115409,15611.113426739152,16772.09258013231,4062.7244091675047,2881.178509119274,9518.592839151845,-26020.816834483536,0.0
-6319.719425274352,12353.46937317272,15611.33969667919,16774.319552700053,4066.9044485861104,2887.7522463246023,9535.408268379966,-26027.54538796363,0.0
-6318.421350355185,12356.256066118458,15614.400295341815,16778.285231122834,4071.1440327257783,2892.920728112849,9542.029641362144,-26042.82456338833,0.0
-6319.85042366069,12349.003519093014,15607.933738634401,16771.1398645953,4063.7723962582095,2888.4906008657804,9535.265361049416,-26068.45261133374,0.0
-6321.636765292573,12343.549222643665,15605.004138358114,16768.74616680858,4062.0455993473897,2890.300760386088,9534.610369117725,-26089.626714143655,0.0
-6319.409792724826,12348.836793874038,15611.958961778242,16772.18785168601,4063.9748483098233,2893.456630602414,9536.658707522283,-26102.60746333534,0.0
-6318.838163402624,12352.028390923002,15614.936197831381,16773.605016047302,4067.51180474095,2885.8825420832313,9526.32174394579,-26098.46315074937,0.0
-6323.101565430717,12348.312800328687,15610.541797416949,16770.294329556215,4061.450152136762,2880.2853383033325,9518.854835924521,-26087.92373512126,0.0
-6320.946046528245,12351.159037995485,15613.245127753198,16771.37804347955,4061.5930594673127,2883.500753240721,9530.358876033846,-26066.642451813434,0.0
-6316.694553444365,12352.004573034577,15614.28120589969,16770.127604337235,4059.9258072775556,2889.109865964833,9536.396710749608,-26044.884810737105,0.0
-6314.634306095593,12354.44590659815,15616.436724802163,16773.557380270453,4065.9040972722564,2886.8352576202356,9531.08532163081,-26019.459214843308,0.0
-6317.028003882316,12360.733829142377,15619.0328746405,16774.15282748108,4062.355231896916,2873.7473279306423,9505.862177788627,-26017.4585122156,0.0
-6316.456374560113,12361.757998344656,15619.74741129325,16777.785055465905,4068.285886114766,2886.6089876801975,9537.111247402361,-26044.11072936329,0.0
-6317.254273822354,12360.066928266473,15619.092419361561,16780.583657355855,4073.513912624076,2899.5659189834523,9548.841557451724,-26069.17905693071,0.0
-6318.552348741522,12358.304404523016,15618.330246931957,16778.08277907122,4069.6435057549975,2897.160312252517,9547.32912153673,-26088.173822949724,0.0
-6320.672140811356,12355.47007580043,15617.31798667389,16774.903090966473,4065.380103726904,2892.313371958009,9540.362389172387,-26095.759820413117,0.0
-6322.3274840569,12354.803174924527,15618.032523326645,16778.344775843896,4072.8946475250236,2894.93333968477,9539.58830779857,-26092.163319260933,0.0
-6319.909968381753,12357.030147492273,15619.27105352475,16781.500646060224,4076.062426685562,2899.792188923491,9544.197069208829,-26076.931779613078,0.0
-6317.159002268653,12359.138030617896,15617.984887549794,16777.868418075395,4068.845606492756,2894.9928844058327,9541.731917756832,-26052.13735776255,0.0
-6317.528179539243,12360.721920198164,15618.532698983572,16774.510095807454,4065.2729232289907,2891.1820222578167,9537.885328776178,-26029.950994694565,0.0
-6317.575815316093,12359.935929880136,15623.248640891741,16777.296788753192,4067.9524356768147,2892.1942825158835,9537.587605170864,-26017.660964267212,0.0
-6319.350248003763,12354.707903370825,15617.770526553968,16772.5570289566,4064.93947279104,2888.4906008657804,9537.837692999326,-26022.07918257007,0.0
-6316.242013564288,12352.981106460007,15615.81745970311,16771.37804347955,4063.9629393656105,2891.217749090454,9540.88638271774,-26037.143996998944,0.0
-6316.81364288649,12353.004924348432,15615.769823926259,16772.00921752282,4064.0820288077357,2895.921782054412,9545.816685621736,-26059.10409012689,0.0
-6317.861629977194,12353.552735782208,15613.126038311073,16773.605016047302,4065.0942890658025,2896.4695934881893,9541.63664620313,-26077.896404094296,0.0
-6317.706813702431,12353.957639885435,15614.04302701544,16779.75003126098,4076.0981535182,2897.3627643041305,9540.4695696703,-26088.340548168704,0.0
-6318.635711351009,12354.731721259252,15615.936549145235,16775.84389755926,4070.3223155751125,2891.622653193681,9538.92140692267,-26082.95770538463,0.0
-6317.921174698257,12354.767448091889,15615.853186535747,16773.1286582788,4067.5475315735885,2892.849274447574,9537.968691385664,-26065.64210049958,0.0
-6317.587724260306,12353.886186220161,15614.864744166107,16774.72445680328,4069.834048862398,2891.4440190304927,9545.50705307221,-26045.897070995168,0.0
-6318.957252844749,12357.577958926051,15621.783840753596,16781.39346556231,4074.835805431669,2894.349801418355,9542.029641362144,-26024.93732918108,0.0
-6319.254976450063,12354.374452932874,15619.997499121715,16778.297140067047,4072.5016523660092,2892.3729166790717,9532.85975431848,-26007.27636491387,0.0
-6318.599984518372,12352.433295026229,15618.365973764596,16774.903090966473,4068.5955186642923,2888.419147200505,9530.489874420184,-26010.396508297556,0.0
-6320.386326150255,12355.00562697614,15618.43742742987,16774.200463257926,4069.250510595983,2892.206191460096,9537.563787282437,-26032.761505528728,0.0
-6320.612596090293,12355.684436796257,15618.34215587617,16775.736717061347,4071.203577446841,2894.9690665174076,9538.77849959212,-26054.197605111316,0.0
-6320.124329377579,12354.67217653819,15615.198194604058,16773.616924991515,4067.97625356524,2891.360656421005,9535.491630989454,-26073.228097962976,0.0
-6322.125032005288,12355.18426113933,15616.031820698934,16775.403266623398,4069.8697756950355,2890.2293067208125,9527.405457869132,-26084.029510363758,0.0
-6321.57722057151,12352.504748691505,15615.293466157756,16774.02182909474,4066.4042729291837,2885.656272143193,9515.734692540833,-26077.12232272048,0.0
-6321.76776367891,12354.86271964559,15616.091365419998,16774.033738038954,4065.3205590058415,2884.4177419450875,9522.558517574624,-26063.438945820257,0.0
-6319.016797565811,12356.351337672158,15617.55616555814,16773.664560768364,4062.9506791075437,2879.2611691010534,9521.712982535533,-26038.870793909766,0.0
-6315.063028087245,12354.136274048624,15616.686812630625,16771.913945969118,4060.92615859141,2871.413174864982,9500.133975622392,-26010.908592898693,0.0
-6313.633954781739,12359.53102577691,15620.95021465872,16776.046349610875,4067.6904389041392,2883.560297961784,9517.485307340077,-26001.34571069602,0.0
-6315.741837907361,12361.996177228906,15621.867203363086,16778.821133612397,4073.0494637997863,2897.481853746256,9543.244353671826,-26016.327162515405,0.0
-6316.968459161252,12364.032606689254,15620.497674778642,16779.380853990388,4074.752442822182,2901.304624838485,9543.589713053989,-26035.42910903234,0.0
-6317.385272208692,12363.603884697603,15620.223769061753,16779.02358566401,4072.061021430145,2897.458035857831,9544.316158650954,-26054.340512441868,0.0
-6316.551646113813,12358.899851733646,15618.747059979398,16777.951780684885,4070.7867643994023,2894.6951608005193,9540.588659112425,-26066.320910319697,0.0
-6317.111366491803,12357.768502033452,15619.36632507845,16777.558785525867,4070.9892164510156,2896.898315479841,9544.268522874105,-26083.041067994116,0.0
-6319.362156947976,12359.507207888484,15619.985590177503,16778.4400473976,4071.417938442667,2890.943843373566,9531.954674558327,-26080.96891170113,0.0
-6318.611893462586,12360.102655099112,15618.913785198372,16776.213074829848,4070.751037566764,2893.7543542077274,9540.517205447151,-26069.381508982322,0.0
-6315.860927349486,12363.115617984886,15620.461947946005,16777.70169285642,4072.8589206923857,2895.266790122722,9543.577804109776,-26043.32473904526,0.0
-6315.456023246259,12367.474291566681,15622.045837526273,16779.833393870464,4074.621444435844,2896.445775599764,9542.315456023247,-26018.768496078977,0.0
-6315.503659023108,12364.175514019804,15619.771229181677,16774.843546245407,4069.6435057549975,2892.992181778124,9539.635943575422,-26003.75131742695,0.0
-6315.956198903185,12351.480579489225,15612.399592714108,16768.674713143304,4065.5944647227298,2892.9564549454867,9539.35012891432,-26006.59755509375,0.0
-6316.789824998064,12350.873223334385,15611.256334069703,16768.12690170953,4064.617931297301,2891.360656421005,9535.97989770217,-26019.81648316968,0.0
-6317.778267367707,12361.555546293044,15614.805199445043,16768.912892027558,4063.022132772819,2893.170815941313,9543.911254547727,-26039.81160050256,0.0
-6313.491047451188,12370.582526006157,15626.452146884916,16775.427084511823,4062.807771776993,2896.6720455398026,9539.707397240696,-26053.721247342815,0.0
-6309.287190144158,12371.618604152649,15634.133415902012,16789.074734579404,4081.445269469635,2908.771532859754,9551.48534306691,-26057.25820377394,0.0
-6309.5849137494715,12363.925426191341,15628.369486903139,16785.69259442304,4079.420748953501,2900.911629679471,9558.940342143967,-26049.8151136411,0.0
-6315.682293186298,12359.054668008406,15620.77158049553,16776.7370683752,4070.489040794089,2891.1939312020295,9537.325608398187,-26038.47779875075,0.0
-6322.220303558987,12348.384253993961,15609.898714429472,16765.542660815405,4058.020376203547,2880.666424518134,9520.831720663806,-26033.690403177305,0.0
-6323.30401748233,12346.764637581055,15607.433562977474,16763.93495334671,4057.686925765596,2882.428948261592,9532.01421927939,-26018.006323649373,0.0
-6320.326781429192,12349.07497275829,15608.410096402902,16766.054745416543,4061.4263342483373,2883.7746589576104,9527.917542470272,-26002.119792069832,0.0
-6319.076342286874,12356.887240161723,15612.042324387732,16767.424274000987,4060.3664382134198,2878.6657218904256,9525.476208906699,-26007.252547025444,0.0
-6316.111015177949,12358.637854960969,15611.768418670843,16767.412365056774,4061.0452480335357,2883.060122304857,9532.264307107853,-26024.961147069505,0.0
-6318.730982904711,12355.315259525667,15607.612197140661,16767.80536021579,4063.5223084297463,2886.7638039549606,9529.07271005889,-26045.86134416253,0.0
-6326.162164093342,12344.525756069095,15599.442661410852,16762.327245878016,4057.222476941307,2879.773253702193,9520.641177556403,-26066.547180259735,0.0
-6327.150606462984,12342.227329836072,15602.431806408202,16763.494322410847,4058.8659112426385,2877.5581900786588,9518.79529120346,-26081.731084130734,0.0
-6324.0780988561455,12347.062361186368,15607.564561363812,16766.26910641237,4062.212324566365,2878.8562649978267,9520.355362895301,-26077.896404094296,0.0
-6322.315575112689,12353.08828695792,15609.505719270459,16764.089769621474,4060.687979707159,2883.7865679018223,9530.66850858337,-26069.19096587492,0.0
-6324.506820847798,12350.515955008008,15609.66053554522,16760.76717418617,4055.8172215242257,2881.333325394037,9526.536104941617,-26051.041734894992,0.0
-6324.649728178349,12350.396865565883,15611.089608850727,16765.161574600603,4059.2708153458657,2882.2384051541912,9523.308781060015,-26029.903358917716,0.0
-6321.815399455761,12345.133112223935,15603.82515288107,16764.458946892064,4061.2953358619993,2883.8222947344602,9528.036631912397,-26013.314199629633,0.0
-6322.315575112689,12339.36918322506,15599.692749239317,16759.64773343019,4053.864154673367,2878.4275430061743,9525.380937352998,-26016.648704009145,0.0
-6323.375471147605,12340.560077646314,15603.932333378983,16762.35106376644,4055.221774313598,2884.1438362281992,9527.191096873306,-26033.083047022465,0.0
-6326.567068196569,12341.84624362127,15605.885400229843,16763.256143526592,4060.6284349860957,2880.404427745458,9521.450985762858,-26053.3282521838,0.0
-6325.304720110039,12342.21542089186,15605.64722134559,16757.551759248785,4050.1485640790515,2868.7336624171585,9505.87408673284,-26068.333521891615,0.0
-6322.9467491559535,12342.894230711976,15604.908866804413,16757.897118630946,4050.541559238066,2873.378150660053,9517.128039013702,-26078.944391184996,0.0
-6321.410495352535,12347.86026044861,15608.803091561917,16762.744058925455,4054.1380603902558,2880.392518801246,9524.404403927569,-26077.991675647994,0.0
-6321.01750019352,12351.825938871389,15613.912028629102,16768.353171649567,4062.533866060104,2892.9088191686365,9538.111598716216,-26066.701996534495,0.0
-6319.80278788384,12351.718758373476,15611.780327615055,16769.853698620347,4067.6428031272885,2894.0758957014664,9537.146974235,-26046.421064540522,0.0
-6318.183171470932,12347.800715727548,15607.969465467038,16768.376989537992,4065.8802793838313,2887.4187958866505,9519.664644130975,-26018.94713024217,0.0
-6316.039561512674,12353.004924348432,15613.352308251111,16769.972788062474,4066.5590892039463,2883.619842682847,9514.734341226978,-26004.239584139665,0.0
-6316.230104620075,12350.62313550592,15612.399592714108,16765.828475476505,4060.92615859141,2876.1767525500027,9523.320690004228,-26007.407363300204,0.0
-6315.622748465235,12349.87287202053,15612.613953709933,16767.06700567461,4062.891134386481,2880.094795195932,9522.522790741987,-26025.890044718086,0.0
-6315.932381014762,12349.253606921478,15609.791533931559,16764.709034720527,4062.0098725147523,2879.642255315855,9513.9007151321,-26047.266599579616,0.0
-6316.694553444365,12350.52786395222,15608.374369570265,16763.422868745572,4060.687979707159,2880.6306976854967,9512.257280830769,-26067.487986852524,0.0
-6317.635360037156,12349.658511024705,15608.183826462864,16762.791694702304,4059.342269011141,2882.8457613090313,9526.17883661524,-26078.944391184996,0.0
-6318.218898303571,12349.301242698328,15609.684353433646,16765.268755098514,4062.6291376138047,2885.430002203155,9530.859051690772,-26071.275031112113,0.0
-6317.861629977194,12349.086881702504,15608.969816780893,16765.054394102688,4062.117053012665,2885.2275501515414,9521.308078432307,-26059.08027223846,0.0
-6312.812237631073,12352.016481978791,15610.934792575963,16766.376286910283,4064.3082987477746,2888.1571504278286,9529.191799501015,-26036.536640844108,0.0
-6310.930624445489,12353.56464472642,15611.506421898166,16766.400104798708,4063.4627637086833,2886.1445388559077,9536.372892861184,-26011.34922383456,0.0
-6312.931327073198,12351.147129051273,15609.51762821467,16765.304481931154,4065.344376894266,2889.681495287035,9535.265361049416,-26003.64413692904,0.0
-6313.038507571111,12349.765691522618,15607.219201981648,16762.505880041204,4060.759433372434,2890.4317587724263,9534.836639057765,-26007.00245919698,0.0
-6309.406279586283,12351.385307935525,15608.314824849203,16762.66069631597,4059.3303600669283,2889.3361359048713,9530.049243484318,-26019.00667496323,0.0
-6313.991223108115,12350.56359078486,15607.540743475387,16761.529346615775,4055.900584133714,2885.870633139019,9534.014921907097,-26046.897422309023,0.0
-6313.82449788914,12351.802120982964,15611.161062516003,16764.494673724697,4058.258555087799,2882.7862165879683,9526.905282212205,-26063.30794743392,0.0
-6312.585967691034,12353.08828695792,15613.399944027962,16765.042485158476,4056.7103923401673,2875.1168565150856,9518.021209829643,-26068.011980397878,0.0
-6313.26477751115,12359.352391613722,15612.042324387732,16763.661047629823,4060.1758951060187,2881.476232724588,9529.965880874832,-26067.190263247212,0.0
-6311.53798060033,12359.650115219036,15608.86263628298,16761.279258787312,4058.675368135238,2883.8103857902474,9530.537510197033,-26056.162580906388,0.0
-6310.394721955925,12355.065171697204,15608.040919132314,16761.576982392628,4057.9489225382717,2879.3921674873914,9530.477965475971,-26030.641713458892,0.0
-6310.370904067499,12352.576202356779,15609.577172935733,16763.863499681436,4061.664513132588,2881.5000506130127,9524.166225043318,-26002.870055555224,0.0
-6308.012933113415,12350.873223334385,15607.826558136489,16764.3041306173,4061.6406952441625,2880.511608243371,9524.92839747292,-25988.84131927284,0.0
-6306.810129747947,12353.576553670633,15609.98207703896,16769.62742868031,4068.2739771705537,2883.3340280217453,9520.62926861219,-25998.51138197343,0.0
-6309.156191757819,12349.741873634192,15605.69485712244,16766.947916232486,4065.582555778518,2876.272024103703,9497.013832238701,-26015.660261639503,0.0
-6311.049713887614,12347.705444173846,15605.17086357709,16763.184689861322,4057.8417420403593,2880.190066749632,9517.366217897952,-26033.356952739352,0.0
-6311.764250540368,12349.02733698144,15610.517979528526,16767.269457726226,4065.380103726904,2883.8699305113105,9525.52384468355,-26048.10022567449,0.0
-6314.074585717603,12349.02733698144,15612.435319546747,16765.161574600603,4063.7247604813597,2879.5588927063673,9524.702127532883,-26060.68797970716,0.0
-6316.587372946451,12349.753782578404,15611.375423511829,16762.94651097707,4059.437540564841,2884.2986525029623,9519.54555468885,-26058.28237297622,0.0
-6315.991925735824,12351.528215266075,15608.16000857444,16761.541255559987,4057.794106263509,2884.917917602015,9527.738908307083,-26048.814762327245,0.0
-6314.777213426144,12351.754485206115,15609.207995665143,16766.852644678784,4063.9986661982475,2884.9060086578024,9520.010003513138,-26028.271833560593,0.0
-6314.050767829178,12351.611577875563,15610.577524249587,16766.376286910283,4060.4259829344833,2878.3799072293245,9520.05763928999,-26006.561828261114,0.0
-6313.669681614376,12351.516306321862,15613.507124525875,16770.580144217314,4067.8809820115403,2889.1217749090456,9529.513340994754,-25999.833274781024,0.0
-6315.051119143032,12348.015076723374,15612.45913743517,16768.18644643059,4064.844201237339,2881.023692844511,9532.180944498365,-26004.26340202809,0.0
-6315.682293186298,12350.253958235331,15612.566317933084,16765.161574600603,4062.128961956878,2882.428948261592,9525.857295121501,-26020.05466205393,0.0
-6315.753746851573,12355.636801019406,15611.303969846553,16767.400456112562,4064.6536581299383,2886.4065356285837,9520.617359667978,-26038.775522356063,0.0
-6317.659177925581,12357.137327990185,15610.744249468564,16765.685568145956,4060.795160205072,2882.905306030094,9517.366217897952,-26060.89043175877,0.0
-6318.838163402624,12355.93452462472,15613.447579804813,16767.30518455886,4064.344025580412,2888.288148814167,9525.71438779095,-26073.704455731477,0.0
-6317.921174698257,12351.301945326037,15610.756158412776,16766.55492107347,4067.2736258566997,2892.6110955633226,9532.847845374268,-26066.035095658593,0.0
-6317.254273822354,12352.802472296817,15610.934792575963,16764.685216832102,4063.2364937686443,2889.3004090722334,9527.917542470272,-26045.94470677202,0.0
-6316.492101392751,12352.433295026229,15610.7799763012,16761.291167731524,4057.341566383432,2881.0594196771485,9519.497918911999,-26026.5688545382,0.0
-6313.538683228038,12350.944676999661,15611.70887394978,16764.971031493205,4061.795511518926,2886.382717740159,9532.228580275216,-26007.431181188633,0.0
-6311.764250540368,12352.230842974615,15611.589784507654,16767.448091889415,4065.796916774343,2889.3361359048713,9529.156072668377,-25985.99508160604,0.0
-6313.217141734299,12352.588111300993,15611.970870722454,16770.854049934205,4069.059967488582,2891.8370141895066,9531.942765614114,-25992.02100737759,0.0
-6313.014689682686,12351.004221720723,15610.672795803286,16766.49537635241,4063.343674266558,2889.872038394436,9538.290232879404,-26009.46761064898,0.0
-6314.157948327092,12350.813678613322,15613.399944027962,16766.007109639697,4062.021781458964,2892.7897297265113,9541.255559988329,-26029.52227270291,0.0
-6316.635008723301,12350.003870406868,15613.173674087924,16766.054745416543,4058.0680119803983,2889.0026854669195,9536.599162801222,-26051.791998380384,0.0
-6317.028003882316,12352.230842974615,15613.25703669741,16768.758075752794,4068.071525118941,2894.540344525756,9530.739962248646,-26066.594816036584,0.0
-6318.314169857271,12350.253958235331,15610.327436421123,16765.09012093533,4066.2375477102073,2884.7631013272517,9529.525249938966,-26063.843849923487,0.0
-6317.480543762392,12348.908247539313,15609.70817132207,16765.10202987954,4063.069768549669,2883.3697548543832,9537.015975848662,-26046.694970257413,0.0
-6315.801382628423,12352.766745464181,15613.161765143712,16769.198706688658,4067.2378990240622,2885.8110884179564,9531.192502128722,-26024.782512906317,0.0
-6315.55129479996,12353.445555284296,15613.685758689064,16770.580144217314,4067.618985238864,2888.6930529173933,9527.131552152243,-26005.430478560924,0.0
-6314.372309322916,12352.016481978791,15612.471046379382,16768.627077366455,4065.070471177378,2885.9182689158692,9527.274459482795,-25990.401390964686,0.0
-6313.133779124812,12351.945028313514,15611.470695065529,16768.12690170953,4067.5594405178012,2891.5988353052558,9536.31334814012,-25991.592285385937,0.0
-6313.610136893313,12351.397216879737,15610.970519408602,16768.09117487689,4067.51180474095,2895.4216063974845,9538.74277275948,-26005.549568003047,0.0
-6315.27738908307,12347.502992122234,15605.492405070829,16764.411311115215,4066.9878111955986,2892.8135476149364,9532.395305494192,-26027.878838401582,0.0
-6315.170208585158,12348.765340208764,15603.86087971371,16760.95771729357,4060.1758951060187,2885.8349063063815,9532.002310335178,-26044.4084529686,0.0
-6315.18211752937,12351.59966893135,15607.671741861725,16764.244585896235,4062.6291376138047,2890.669937656677,9539.755033017547,-26063.86766781191,0.0
-6316.730280277002,12349.72996468998,15605.766310787716,16759.885912314447,4058.4133713625615,2887.156799113974,9537.682876724562,-26062.212324566364,0.0
-6316.90891444019,12349.694237857342,15606.992932041609,16759.82636759338,4056.8175728380797,2884.0962004513485,9530.716144360222,-26046.21861248891,0.0
-6315.18211752937,12346.907544911606,15603.872788657922,16758.05193490571,4056.0434914642638,2880.5830619086464,9529.048892170464,-26024.222792528326,0.0
-6314.515216653467,12347.229086405345,15607.052476762672,16761.017262014637,4057.9489225382717,2876.5816566532294,9524.273405541233,-26001.40525541708,0.0
-6314.455671932405,12348.431889770813,15605.813946564567,16761.457892950497,4059.3303600669283,2878.201273066136,9517.187583734763,-25987.090704473594,0.0
-6313.693499502801,12350.539772896433,15608.517276900815,16764.423220059427,4065.2848321732035,2888.0023341530655,9523.80895671694,-25987.376519134697,0.0
-6315.420296413621,12349.670419968917,15608.58873056609,16766.233379579735,4066.6781786460715,2888.740688694244,9524.606855979184,-25997.189489165838,0.0
-6316.932732328615,12350.218231402696,15608.791182617704,16766.49537635241,4064.9156549026143,2889.1455927974703,9528.167630298736,-26019.14958229378,0.0
-6317.028003882316,12353.886186220161,15607.314473535349,16762.398699543293,4059.544721062754,2881.7025026646265,9519.748006740461,-26041.39549008283,0.0
-6318.016446251957,12357.29214426495,15606.468938496257,16759.052286219565,4055.0074133177727,2881.9168636604522,9532.847845374268,-26057.56783632347,0.0
-6319.445519557464,12351.623486819777,15605.96876283933,16760.624266855622,4058.484825027837,2884.0842915071366,9531.073412686597,-26049.183939597835,0.0
-6321.517675850448,12346.883727023182,15603.467884554695,16758.957014665863,4059.306542178503,2884.489195610363,9526.417015499492,-26038.787431300276,0.0
-6318.7548007931355,12352.20702508619,15607.302564591137,16762.85123942337,4061.569241578888,2885.763452641106,9528.358173406135,-26009.300885430002,0.0
-6317.409090097118,12352.20702508619,15605.206590409727,16760.838627851448,4058.03228514776,2879.499347985304,9527.58409203232,-25981.910313741133,0.0
-6317.004185993891,12348.431889770813,15605.635312401379,16756.31322905068,4052.899530192151,2871.984804187185,9505.195276912724,-25972.406976259517,0.0
-6316.111015177949,12343.442042145754,15606.218850667792,16757.349307197168,4058.6991860236635,2879.0229902168026,9524.130498210681,-25981.112414478892,0.0
-6314.801031314568,12343.346770592054,15604.444417980123,16757.063492536072,4058.1394656456728,2878.558541392513,9525.15466741296,-25994.736246658053,0.0
-6315.991925735824,12342.608416050874,15600.859825772144,16757.003947815007,4059.985351998618,2885.299003816817,9527.72699936287,-26019.268671735907,0.0
-6317.599633204519,12344.680572343857,15603.82515288107,16760.600448967198,4063.9986661982475,2895.2906080111466,9540.98165427144,-26041.752758409202,0.0
-6319.707516330139,12346.788455469481,15610.422707974823,16763.55386713191,4062.2718692874287,2896.767317093503,9546.400223888151,-26052.732804973173,0.0
-6319.588426888014,12347.25290429377,15610.053530704234,16762.493971096992,4058.806366521576,2885.4776379800046,9535.312996826266,-26049.326846928387,0.0
-6318.087899917233,12347.34817584747,15605.26613513079,16758.040025961498,4057.98464937091,2880.702151350772,9530.513692308608,-26036.572367676745,0.0
-6317.266182766567,12345.89528465354,15604.027604932686,16757.051583591856,4055.9601288547765,2880.2377025264827,9533.586199915446,-26013.11174757802,0.0
-6315.610839521022,12342.024877784459,15603.884697602134,16759.20710249433,4057.901286761422,2884.2391077818997,9538.945224811094,-25989.019953436025,0.0
-6310.859170780214,12345.692832601924,15607.004840985821,16761.672253946326,4062.9744969959693,2888.3596024794424,9535.360632603117,-25971.358989168813,0.0
-6311.216439106591,12347.550627899083,15608.005192299675,16762.089066993765,4060.1044414407443,2876.77219976063,9515.794237261895,-25972.27597787318,0.0
-6314.193675159729,12349.801418355255,15608.052828076527,16760.921990460934,4058.4252803067743,2874.7953150213466,9519.093014808772,-25994.91488082124,0.0
-6315.682293186298,12349.991961462656,15607.112021483734,16758.4211121763,4056.4126687348526,2873.854508428555,9515.055882720717,-26018.14923097993,0.0
-6316.932732328615,12347.240995349557,15606.19503277937,16759.50482609964,4058.461007139412,2875.3788532877616,9510.316122924121,-26038.275346699138,0.0
-6318.397532466759,12349.515603694153,15608.267189072352,16761.04107990306,4060.902340702985,2878.6538129462133,9517.485307340077,-26054.400057162933,0.0
-6315.980016791611,12348.991610148802,15607.755104471213,16760.445632692434,4059.770991002793,2876.534020876379,9526.214563447877,-26040.34750299212,0.0
-6316.2539225085,12346.776546525269,15604.384873259061,16757.706575523545,4059.663810504879,2881.1427822866362,9519.021561143498,-26017.8395984304,0.0
-6314.789122370356,12348.622432878212,15604.182421207446,16758.730744725824,4062.569592892742,2886.227901465396,9527.774635139722,-25996.058139465647,0.0
-6313.526774283825,12350.28968506797,15606.981023097396,16761.493619783138,4065.606373666942,2891.1343864809664,9538.659410149994,-25983.43465860034,0.0
-6312.19297253202,12349.610875247854,15607.231110925859,16759.230920382754,4059.1874527363775,2886.6447145128345,9536.789705908623,-25964.80906985191,0.0
-6312.228699364658,12350.09914196057,15609.922532317896,16762.517788985417,4063.8557588676977,2886.4898982380714,9535.110544774652,-25963.713446984355,0.0
-6310.668627672813,12346.871818078967,15606.385575886768,16760.14790908712,4062.760136000143,2889.6100416217596,9541.54137464943,-25983.780017982506,0.0
-6311.061622831828,12347.502992122234,15604.19433015166,16755.36051351367,4056.1387630179647,2886.71616817811,9543.268171560248,-26006.25219571159,0.0
-6312.764601854222,12349.122608535139,15605.766310787716,16756.384682715954,4055.412317420999,2881.9168636604522,9532.681120155294,-26027.36675380044,0.0
-6312.943236017411,12351.909301480877,15609.66053554522,16760.695720520896,4057.806015207722,2880.9046034023854,9528.679714899876,-26035.9650115219,0.0
