EEG 1,EEG 2,EEG 3,EEG 4,EEG 5,EEG 6,EEG 7,EEG 8,Trigger
-610.4643892795684,11396.990609797487,14240.227222655576,11695.786020090389,-2326.6742486944822,1584.7112974199272,886.5494429591345,-32523.77918435641,0.0
-610.3572087816555,11397.919507446068,14240.727398312503,11695.226299712398,-2329.115582258055,1580.2692612286457,886.5256250707093,-32521.290215015986,0.0
-611.429013760785,11397.788509059728,14241.46575285368,11693.308959694177,-2329.7824831339576,1579.733358739081,882.1907693773409,-32539.84435009914,0.0
-610.5715697774814,11398.753133540946,14242.430377334897,11694.654670390197,-2327.781780506249,1585.2829267421296,891.2415669788795,-32565.97257370148,0.0
-610.4882071679936,11400.420385730702,14242.954370880248,11696.16710630519,-2326.721884471332,1587.2955383140506,892.7301850054483,-32590.004823122403,0.0
-610.7740218290947,11400.289387344365,14243.109187155012,11695.92892742094,-2327.329240626172,1586.4976390518098,894.2307119762297,-32605.045819662857,0.0
-609.6664900173275,11400.682382503379,14242.990097712887,11696.655373017906,-2326.80524708082,1585.3186535747673,894.7666144657945,-32608.65422975926,0.0
-610.4643892795684,11401.361192323495,14243.65699858879,11698.858527697228,-2323.20874592863,1586.712000047636,895.2667901227217,-32595.935477340256,0.0
-608.4160508750097,11401.24210288137,14244.91934667532,11702.19303207674,-2317.7425405350687,1589.5344198260102,891.8251052452944,-32572.796398735267,0.0
-610.4167535027183,11401.67082487302,14244.157174245716,11700.251874170095,-2320.7674123650568,1587.4622635330263,886.0730851906324,-32543.857664298772,0.0
-610.7859307733072,11401.492190709832,14243.466455481388,11698.394078872936,-2320.5054155923804,1586.3666406654718,883.1434849143449,-32517.098266653167,0.0
-610.4048445585056,11397.264515514376,14241.203756081004,11695.36920704295,-2322.1845767263503,1585.723557677994,883.1434849143449,-32508.83345936966,0.0
-611.3813779839347,11396.919156132213,14240.477310484039,11689.843456928325,-2332.9145354618586,1581.9484223626155,884.4296508893004,-32532.591803073698,0.0
-610.2857551163802,11398.860314038859,14242.597102553873,11692.225245770836,-2333.6052542261864,1585.37819829583,891.3011116999422,-32563.495513305264,0.0
-610.8812023270076,11396.145074758397,14239.846136440774,11693.97586057008,-2328.4844082147897,1587.9267123573159,892.4324614001346,-32585.89623736907,0.0
-610.952655992283,11399.312853918935,14240.286767376638,11693.523320690003,-2329.877754687658,1583.7228550502855,892.2061914600961,-32598.04336046588,0.0
-610.7740218290947,11399.70584907795,14240.822669866202,11695.988472142002,-2325.9716209859416,1587.5694440309394,895.0881559595334,-32607.63006055698,0.0
-610.6549323869692,11396.788157745876,14238.583788354244,11691.653616448633,-2329.353761142306,1586.4976390518098,897.9224846821205,-32593.363145390347,0.0
-609.2258590814631,11395.704443822533,14238.297973693143,11691.21298551277,-2330.6637450056865,1582.067511804741,889.955401003924,-32565.93684686884,0.0
-607.7729678875319,11398.360138381931,14240.143860046086,11695.1310281587,-2326.1859819817673,1580.531258001322,885.287094872604,-32535.330860242586,0.0
-608.7495013129611,11397.883780613429,14240.81076092199,11696.298104691528,-2324.494911903585,1580.1739896749452,881.0594196771485,-32521.337850792836,0.0
-610.3572087816555,11394.227734740176,14236.630721503385,11691.236803401194,-2328.8893123180164,1578.328103322,878.8562649978265,-32515.06183719282,0.0
-611.1193812112587,11395.073269779266,14236.940354052911,11690.903352963243,-2328.62731554534,1582.0556028605283,882.6314003132053,-32528.054495328717,0.0
-611.3575600955097,11394.858908783443,14235.76136857587,11689.045557666086,-2330.782834447812,1581.1624320445871,880.0233415306566,-32550.264676285122,0.0
-612.7270886799531,11392.953477709434,14233.53439600812,11686.675677767787,-2333.1288964576843,1579.2927278032164,876.5697477090168,-32580.739664525045,0.0
-612.4055471862142,11393.203565537897,14233.486760231272,11685.711053286572,-2335.4273226907067,1578.6139179831011,879.296895933691,-32599.531978492447,0.0
-610.4882071679936,11397.752782227091,14239.488868114397,11692.237154715049,-2328.62731554534,1585.7950113432694,888.1452414836162,-32598.19817674064,0.0
-607.1775206769044,11401.456463877194,14244.383444185754,11698.620348812974,-2321.3509506314717,1590.094140204,894.4212550836305,-32580.513394585003,0.0
-607.3561548400927,11398.765042485158,14241.108484527304,11696.500556743142,-2322.244121447413,1584.639843754652,889.7291310638855,-32552.02720002858,0.0
-610.0833030647667,11393.572742808487,14235.90427590642,11691.54643595072,-2326.3407982565304,1579.7809945159313,883.7746589576101,-32524.660446228143,0.0
-610.476298223781,11391.524404403926,14232.950857741707,11688.04520635223,-2330.330294567735,1576.815667407006,880.1662488612072,-32511.26288398902,0.0
-607.8801483854448,11393.50128914321,14235.356464472641,11690.367450473677,-2327.9842325578625,1579.387999356917,883.2387564680453,-32509.571813910836,0.0
-607.0465222905664,11394.787455118165,14238.05979480889,11694.785668776534,-2324.3996403498845,1583.9133981576863,885.156096486266,-32527.197051345414,0.0
-611.298015374447,11393.191656593684,14236.118636902245,11695.071483437636,-2323.887555748745,1581.6030629804513,882.798125532181,-32554.480442536365,0.0
-615.1803311877386,11391.524404403926,14233.24858134702,11691.22489445698,-2327.4840569009352,1576.3154917500788,875.5098516740999,-32587.492035893556,0.0
-612.8938138989288,11392.941568765222,14234.28465949351,11691.343983899107,-2327.0910617419213,1577.137208900745,875.926664721539,-32610.19048356268,0.0
-610.5953876659064,11392.28657683353,14234.677654652525,11691.891795332884,-2325.8048957669657,1579.8048124043562,879.9280699769562,-32610.273846172167,0.0
-611.3932869281474,11391.345770240738,14233.736848059736,11689.414734936674,-2327.9842325578625,1580.0668091770324,882.0716799352153,-32590.016732066615,0.0
-610.4643892795684,11393.191656593684,14234.987287202053,11692.42769782245,-2325.6738973806277,1582.9725915648946,885.5371827010676,-32563.936144241135,0.0
-609.0472249182748,11393.298837091597,14234.272750549299,11692.177609993985,-2328.4963171590025,1580.1144449538826,886.5613519033469,-32532.52034940842,0.0
-610.6430234427567,11392.79866143467,14233.47485128706,11689.712458541988,-2330.7232897267495,1578.7687342578643,884.3462882798125,-32512.37041580079,0.0
-611.9053715292871,11393.394108645298,14234.51092943355,11689.188464996634,-2329.556213193919,1578.8997326442025,879.9280699769562,-32505.415592380654,0.0
-612.0244609714126,11394.692183564466,14235.880458017995,11688.914559279747,-2332.092818311193,1575.7319534836638,877.8440047397598,-32517.836621194347,0.0
-612.1911861903883,11394.513549401277,14235.24928397473,11688.426292567032,-2333.748161556737,1572.409358048362,875.9862094426019,-32535.271315521524,0.0
-613.8703473243579,11392.89393298837,14234.379931047213,11688.104751073293,-2334.2245193252393,1573.266802031666,874.842950798197,-32569.973978956896,0.0
-615.9186857289167,11391.929308507155,14233.665394394458,11688.057115296442,-2333.6886168356746,1573.5645256369796,873.3186059389905,-32596.602378216154,0.0
-614.6563376423862,11391.869763786091,14232.08150481419,11688.438201511244,-2332.7954460197334,1576.3154917500788,881.2261448961242,-32601.437409566453,0.0
-614.6682465865989,11394.346824182301,14232.462591028992,11688.926468223961,-2330.6637450056865,1576.9109389607065,879.904252088531,-32582.08537522106,0.0
-615.4423279604147,11394.10864529805,14232.010051148914,11688.128568961718,-2330.5565645077736,1575.6009550973258,876.3196598805532,-32566.841926628997,0.0
-615.882958896279,11389.702335939406,14228.425458940937,11685.210877629645,-2332.8907175734334,1574.1599728476072,874.3546840854824,-32544.226841569358,0.0
-616.8714012659208,11388.237535801263,14226.853478304882,11683.460262830398,-2333.545709505124,1574.8626005561475,875.4622158972496,-32525.101077164007,0.0
-615.8591410078539,11387.05855032422,14227.627559678696,11684.317706813703,-2334.1887924926014,1574.7316021698098,874.8548597424095,-32521.64748334236,0.0
-615.1207864666758,11384.62912570486,14227.710922288185,11685.627690677082,-2333.093169625047,1576.5417616901173,879.0706259936526,-32535.187952912034,0.0
-617.871752579775,11384.48621837431,14226.186577428978,11684.925062968543,-2333.1527143461094,1577.9708349956234,881.6786847762012,-32556.755050880965,0.0
-615.7638694541535,11388.154173191777,14229.306720812665,11686.520861493023,-2331.759367873241,1579.911992902269,885.0370070441405,-32580.942116576654,0.0
-614.6087018655361,11388.237535801263,14230.223709517031,11687.771300635342,-2329.4966684728565,1580.9123442161235,886.9543470623612,-32595.590117958087,0.0
-616.335498776356,11391.929308507155,14233.582031784972,11690.760445632692,-2326.5789771407817,1582.508142740605,884.2629256703248,-32598.019542577455,0.0
-615.7757783983661,11394.644547787617,14235.273101863155,11691.879886388671,-2326.8290649692453,1582.8654110669818,883.4650264080838,-32581.10884179563,0.0
-616.4903150511191,11392.441393108295,14234.094116386112,11691.379710731744,-2326.995790188221,1581.2696125425,883.3578459101708,-32551.88429269803,0.0
-614.4657945349854,11393.8704664138,14236.178181623307,11692.80878403725,-2326.1740730375545,1581.3767930404128,883.7032052923348,-32524.934351945027,0.0
-613.2749001137304,11397.728964338665,14240.334403153489,11694.559398836494,-2324.8879070625994,1582.4485980195425,881.2975985613995,-32505.153595607982,0.0
-612.7866334010158,11398.550681489332,14243.073460322374,11696.762553515819,-2323.1372922633545,1582.3175996332043,882.3813124847417,-32493.75673599657,0.0
-616.3712256089937,11400.503748340192,14244.609714125794,11697.79863166231,-2321.7320368462733,1585.6640129569312,882.4884929826545,-32511.227157156383,0.0
-616.4188613858438,11401.635098040384,14242.978188768675,11697.274638116958,-2319.8980594375403,1590.499044307227,888.573963475268,-32535.664310680535,0.0
-614.4062498139227,11401.015832941332,14240.81076092199,11696.11947052834,-2321.362859575684,1590.630042693565,888.4786919215676,-32561.76871639445,0.0
-614.1204351528215,11401.492190709832,14242.871008270762,11701.276043372376,-2315.4679321904714,1592.2853859391096,888.1452414836162,-32578.000607356153,0.0
-613.0248122852668,11404.255065767144,14246.050696375512,11702.502664626267,-2316.9684591612527,1590.332319088251,889.5385879564847,-32581.513745898857,0.0
-613.8465294359329,11398.943676648347,14242.454195223321,11697.98917476971,-2323.2206548728423,1586.8191805455488,888.0261520414907,-32563.257334421018,0.0
-615.3470564067143,11392.298485777743,14238.726695684793,11697.393727559083,-2321.3033148546215,1586.5095479960223,890.6461197682519,-32540.618431472954,0.0
-613.0129033410543,11394.311097349664,14239.715138054436,11697.488999112782,-2320.92222863982,1587.0335415413745,892.8611833917863,-32510.35780422887,0.0
-613.2034464484551,11396.740521969024,14241.525297574743,11698.120173156049,-2319.8266057722653,1589.224787276484,893.5042663792641,-32491.994212253114,0.0
-615.1446043551009,11400.110753181178,14241.239482913643,11697.369909670657,-2321.3152237988343,1585.4734698495304,888.8002334153065,-32490.541321059183,0.0
-617.3834858670605,11397.038245574338,14234.987287202053,11691.153440791706,-2326.1264372607047,1581.4958824825385,884.6678297735514,-32507.356750287305,0.0
-615.990139394192,11394.763637229742,14230.569068899196,11687.52121280688,-2328.960765983292,1582.4128711869048,884.5130134987882,-32530.614918334413,0.0
-613.2391732810927,11396.133165814184,14233.379579733357,11691.058169238006,-2325.2570843331882,1585.9141007853948,887.3711601098004,-32554.004084767865,0.0
-614.6325197539612,11393.91810219065,14234.1774789956,11692.90405559095,-2324.3043687961845,1587.5575350867268,889.2765911838086,-32573.772932160697,0.0
-615.7400515657284,11393.35838181266,14234.117934274536,11691.058169238006,-2327.043425965071,1585.1281104673665,884.9060086578024,-32584.705342947822,0.0
-615.1565132993135,11393.54892492006,14234.439475768275,11690.581811469505,-2326.75761130397,1584.9971120810283,887.2520706676748,-32566.99674290376,0.0
-611.9410983619247,11395.370993384582,14236.41636050756,11693.904406904805,-2322.8991133791033,1587.343174090901,891.6702889705314,-32538.617728845245,0.0
-612.0482788598376,11398.753133540946,14239.345960783847,11696.298104691528,-2321.0294091377327,1586.8072716013362,889.2170464627459,-32511.715423869096,0.0
-612.6437260704652,11399.813029575862,14241.858748012695,11698.132082100261,-2319.112069119512,1586.390458553897,889.4671342912094,-32499.997022763946,0.0
-612.0601878040502,11396.323708921584,14239.989043771326,11695.011938716572,-2322.291757224263,1584.2230307072127,890.4079408840009,-32492.458661077402,0.0
-613.9894367664834,11393.906193246437,14236.880809331848,11693.868680072168,-2322.8157507696155,1583.9372160461114,882.6433092574177,-32508.452373154854,0.0
-614.3943408697102,11396.168892646823,14235.344555528429,11692.260972603473,-2325.1260859468503,1581.7102434783644,877.2842843617699,-32531.722450146182,0.0
-612.941449675779,11397.550330175478,14237.249986602437,11694.690397222834,-2322.1369409495,1586.4380943307472,887.6569747709017,-32554.27799048475,0.0
-611.8100999755867,11395.954531650996,14237.321440267711,11695.940836365151,-2320.8031391976942,1583.4608582776095,883.1792117469826,-32570.4503367254,0.0
-613.4535342769186,11396.454707307923,14236.928445108699,11697.774813773884,-2318.0998088614456,1582.198510191079,872.270618848286,-32576.452444608523,0.0
-613.8703473243579,11396.29989103316,14234.92774248099,11694.559398836494,-2319.8027878838398,1584.5922079778018,877.2723754175573,-32552.31301468968,0.0
-611.6910105334612,11397.204970793315,14237.095170327673,11693.22559708469,-2319.3145211711258,1588.6412490100688,883.8103857902478,-32521.3021239602,0.0
-609.2973127467384,11402.147182641524,14244.35962629733,11700.192329449032,-2313.836406833352,1593.357190918239,887.8236999898774,-32499.49684710702,0.0
-610.8931112712203,11401.95663953412,14244.693076735282,11700.430508333284,-2317.7425405350687,1590.868221577816,886.7042592338976,-32491.97039436469,0.0
-610.5239340006311,11401.313556546644,14244.26435474363,11698.370260984511,-2320.052875712304,1590.1179580924254,888.6335081963308,-32482.145515389333,0.0
-609.6188542404773,11402.373452581562,14243.4783644256,11698.048719490773,-2319.612244776439,1591.0349467967917,894.3140745857175,-32499.21103244592,0.0
-605.9985351998619,11404.552789372457,14245.848244323899,11702.490755682054,-2313.9674052196906,1596.7988757956662,902.1025241007259,-32522.60019887937,0.0
-605.4864505987222,11404.61233409352,14247.182046075704,11704.812999803502,-2311.2521659392287,1597.3466872294437,900.7091776278573,-32546.51335885817,0.0
-607.427608505368,11399.336671807361,14242.323196836984,11699.287249688878,-2316.492101392751,1588.7603384521944,889.8244026175859,-32571.010057103387,0.0
-612.0720967482628,11397.69323750603,14238.976783513257,11694.44030939437,-2320.862683918757,1585.0328389136662,883.1434849143449,-32582.454552491647,0.0
-609.5712184636271,11400.206024734876,14241.46575285368,11698.501259370849,-2316.515919281176,1588.0696196878664,884.3105614471749,-32566.27029730679,0.0
-609.0948606951251,11401.182558160306,14244.419171018393,11701.752401140877,-2313.1337791248116,1589.9035970965992,881.5476863898631,-32539.35608338643,0.0
-607.2013385653295,11401.980457422547,14244.931255619533,11701.418950702924,-2313.2171417342993,1593.8454576309537,885.7396347526809,-32506.77321202089,0.0
-608.8924086435117,11396.716704080598,14237.238077658225,11695.46447859665,-2317.3376364318424,1592.642654265486,884.1319272839866,-32489.10033880946,0.0
-610.8097486617323,11390.857503528025,14229.056632984202,11689.581460155649,-2320.838866030332,1590.7729500241157,883.2983011891081,-32486.218374310025,0.0
-612.4650919072769,11394.585003066553,14233.677303338673,11695.6073859272,-2313.0385075711115,1593.571551914065,883.989019953436,-32504.79632728161,0.0
-612.3698203535765,11397.133517128039,14240.548764149315,11702.00248896934,-2311.109258608678,1593.5834608582775,888.6335081963308,-32522.790741986766,0.0
-612.4889097957019,11398.181504218743,14240.882214587265,11701.85958163879,-2315.146390696733,1590.522862195652,891.0748417599037,-32546.41808730447,0.0
-613.3939895558559,11399.574850691612,14237.202350825586,11695.631203815625,-2320.7435944766316,1588.1410733531418,891.706015803169,-32565.555760654035,0.0
-613.7155310495947,11395.621081213045,14233.593940729184,11691.105805014855,-2322.8038418254027,1585.4615609053178,890.6818466008896,-32576.309537277968,0.0
-612.9890854526292,11393.91810219065,14236.499723117047,11693.999678458507,-2321.4700400735974,1585.592559291656,884.3581972240252,-32561.25663179331,0.0
-612.4293650746393,11395.775897487809,14239.27450711857,11694.678488278621,-2322.6490255506396,1582.9725915648946,878.2965446198367,-32539.48708177276,0.0
-610.4167535027183,11396.454707307923,14238.70287779637,11694.928576107084,-2320.8984107513947,1585.140019411579,879.2135333242031,-32512.167963749172,0.0
-607.9158752180825,11397.859962725004,14238.833876182707,11696.179015249403,-2318.8024365699857,1588.188709129992,884.1319272839866,-32490.207870621227,0.0
-608.6304118708356,11395.680625934107,14236.14245479067,11696.298104691528,-2317.2780917107793,1587.9981660225912,884.2391077818996,-32479.823271267887,0.0
-607.0107954579287,11397.56223911969,14237.940705366766,11697.358000726445,-2317.444816929755,1587.2002667603504,886.8114397318105,-32498.38931529525,0.0
-607.082249123204,11397.443149677565,14239.488868114397,11697.584270666484,-2317.1709112128665,1588.1291644089295,889.3004090722336,-32523.052738759445,0.0
-611.536194258698,11391.298134463888,14235.320737640004,11692.368153101386,-2321.815399455761,1582.591505350093,881.309507505612,-32552.57501146236,0.0
-613.3582627232182,11388.213717912839,14231.533693380414,11688.36674784597,-2326.4956145312935,1579.2927278032164,875.3431264551241,-32571.72459375614,0.0
-613.4416253327062,11392.500937829356,14235.011105090478,11690.93907979588,-2322.9467491559535,1584.4373917030384,882.5123108710796,-32567.854186887063,0.0
-612.4889097957019,11390.393054703734,14232.665043080606,11688.962195056596,-2324.649728178348,1584.080123376662,882.9648507511566,-32548.263973657413,0.0
-611.1789259323215,11390.440690480586,14232.855586188005,11689.807730095688,-2323.7089215855567,1583.544220887097,881.1308733424238,-32521.02821824331,0.0
-609.999940455279,11390.60741569956,14232.260138977379,11689.39091704825,-2324.9117249510246,1581.805515032065,876.5340208763791,-32495.42398818633,0.0
-610.2976640605928,11388.213717912839,14229.318629756877,11687.830845356404,-2325.554807938502,1579.411817245342,875.1287654592982,-32480.585443697488,0.0
-610.7621128848822,11389.511792832007,14229.580626529554,11688.855014558683,-2323.9947362466582,1582.0079670836783,878.5109056156626,-32474.488064260662,0.0
-610.2738461721676,11387.225275543196,14226.43666525744,11685.353784960194,-2327.019608076646,1580.162080730733,874.4261377507577,-32491.101041437167,0.0
-609.3568574678012,11386.58219255572,14224.745595179258,11684.543976753741,-2327.36496745881,1581.1981588772248,877.4629185249581,-32516.586182052026,0.0
-608.0230557159955,11388.73771145819,14226.75820675118,11686.651859879361,-2326.1859819817673,1581.0909783793118,874.4499556391828,-32543.238399199716,0.0
-607.9754199391452,11390.774140918536,14231.640873878327,11692.094247384499,-2320.6364139787183,1585.2829267421296,876.5697477090168,-32564.01950685062,0.0
-609.3687664120137,11391.72685645554,14232.462591028992,11694.035405291143,-2318.814345514198,1585.8069202874817,882.1907693773409,-32566.00830053411,0.0
-610.5120250564187,11392.977295597859,14232.96276668592,11692.642058818274,-2321.970215730524,1582.3175996332043,877.9154584050351,-32544.9294692779,0.0
-609.5116737425643,11392.405666275656,14233.867846446074,11693.106507642566,-2321.7796726231236,1582.1746923026537,878.8443560536141,-32518.396341572337,0.0
-606.5582555778517,11392.024580060854,14233.796392780798,11693.916315849017,-2318.957252844749,1587.2717204256255,883.9771110092234,-32487.40926873128,0.0
-603.319022752038,11386.760826718906,14228.16346216826,11687.509303862666,-2322.720479215915,1586.3428227770466,877.0580144217314,-32460.97141257942,0.0
-602.8783918161736,11388.308989466537,14229.020906151565,11688.402474678607,-2319.6717894975022,1587.5337171983017,879.9280699769562,-32451.313258823036,0.0
-605.093455439708,11395.561536491981,14235.11828558839,11695.1310281587,-2315.8728362936986,1589.2605141091217,878.8681739420391,-32465.93744231605,0.0
-608.1064183254833,11400.45611256334,14234.427566824063,11693.285141805753,-2320.326781429192,1584.4969364241012,879.6660732042801,-32490.195961677015,0.0
-607.0107954579287,11399.229491309448,14237.809706980428,11695.7026574809,-2318.8977081236862,1582.6510500711559,876.855562370118,-32528.31649210139,0.0
-607.1060670116291,11393.251201314748,14238.905329847981,11696.91736979058,-2317.647268981368,1585.9141007853948,876.4268403784662,-32540.284981035005,0.0
-606.9631596810784,11394.14437213069,14235.844731185356,11691.951340053947,-2320.7197765882065,1585.9974633948825,880.4401545780959,-32545.024740831603,0.0
-605.8318099808861,11396.025985316272,14233.486760231272,11690.260269975764,-2319.600335832227,1589.5106019375853,883.9532931207984,-32539.475172828556,0.0
-606.1652604188375,11396.788157745876,14234.308477381937,11691.165349735918,-2319.600335832227,1589.593964547073,884.1676541166242,-32511.632061259606,0.0
-607.34424589588,11392.917750876795,14232.653134136393,11690.200725254703,-2321.4581311293846,1586.7358179360608,883.5722069059967,-32480.192448538473,0.0
-606.6178002989144,11392.643845159906,14235.499371803193,11692.927873479377,-2321.0651359703706,1586.0570081159456,885.6800900316182,-32459.58997505076,0.0
-605.653175817698,11396.002167427847,14238.119339529952,11693.17796130784,-2320.243418819705,1587.128813095075,884.0009288976486,-32455.10030308263,0.0
-605.0815464954953,11397.955234278705,14239.31023395121,11694.321219952244,-2317.4090900971178,1588.8675189501073,882.9172149743065,-32469.819758129343,0.0
-606.4510750799387,11391.71494751133,14232.36731947529,11690.010182147302,-2321.4343132409595,1586.6405463823605,882.5242198152922,-32497.82959491726,0.0
-607.5824247801311,11388.630530960278,14229.259085035816,11686.258864720347,-2325.2809022216134,1586.3428227770466,883.4173906312336,-32530.76973460918,0.0
-606.605891354702,11388.987799286653,14230.902519337147,11687.235398145778,-2325.2094485563384,1588.855610005895,886.4303535170089,-32549.573957520795,0.0
-604.2002846237666,11389.214069226691,14230.783429895022,11690.355541529465,-2318.7667097373483,1589.6416003239233,889.479043235422,-32553.670634329916,0.0
-604.4265545638052,11390.476417313223,14230.96206405821,11692.439606766662,-2317.635360037156,1585.5211056263806,882.6671271458429,-32537.283927093446,0.0
-605.4507237660845,11392.274667889318,14231.235969775098,11691.796523779183,-2318.242716191996,1581.722152422577,875.2240370129986,-32517.419808146908,0.0
-604.7600050017566,11392.941568765222,14232.581680471118,11688.616835674433,-2323.780375250832,1578.0422886608987,868.531210365545,-32488.147623272456,0.0
-606.5106198010016,11388.594804127639,14232.093413758403,11687.366396532116,-2323.7922841950444,1579.8762660696316,872.4492530114743,-32469.343400360838,0.0
-605.4507237660845,11386.022472177729,14229.104268761053,11686.699495656212,-2323.5064695339433,1582.9845005091074,879.4636211526666,-32459.8162449908,0.0
-605.224453826046,11388.26135368969,14228.53263943885,11685.80632484027,-2323.7446484181946,1586.0808260043705,881.7977742183266,-32472.26109169291,0.0
-605.8675368135238,11391.67922067869,14229.640171250618,11688.259567348057,-2318.933434956324,1589.9512328734495,885.4419111473673,-32499.020489338516,0.0
-605.7960831482485,11393.977646911713,14230.914428281361,11686.461316771962,-2324.2210061866967,1583.8419444924111,881.7263205530513,-32529.686020685836,0.0
-605.1053643839205,11389.988150600508,14230.068893242269,11687.90229902168,-2322.6609344948524,1584.3302112051256,881.6310489993509,-32541.380603902562,0.0
-605.331634323959,11388.69007568134,14230.461888401283,11688.569199897582,-2320.7197765882065,1587.474172477239,885.7515436968936,-32544.989013998966,0.0
-603.0332080909367,11393.144020816833,14234.22511477245,11691.272530233831,-2319.8027878838398,1588.7007937311319,886.6923502896851,-32529.15011819627,0.0
-600.8300534116148,11394.501640457065,14236.463996284408,11695.46447859665,-2314.4556719324046,1592.6307453212735,890.4198498282135,-32498.960944617455,0.0
-602.3186714381836,11391.107591356487,14234.999196146266,11692.511060431936,-2317.1470933244414,1588.986608392233,889.848220506011,-32469.593488189308,0.0
-602.7235755414104,11387.642088590637,14230.033166409632,11688.74783406077,-2320.9341375840327,1585.1757462442167,882.0597709910028,-32448.371749602535,0.0
-605.7722652598234,11388.475714685514,14226.115123763702,11685.889687449759,-2318.778618681561,1588.5697953447936,880.1900667496323,-32444.84670211562,0.0
-604.9029123323072,11390.88132141645,14228.53263943885,11689.02173977766,-2312.3477888067832,1596.382062748227,884.6916476619765,-32459.98297020977,0.0
-604.7957318343941,11388.713893569766,14228.5802752157,11686.342227329837,-2323.280199593905,1585.056656802091,879.5827105947922,-32478.75146628876,0.0
-605.1649091049833,11390.035786377359,14232.796041466943,11687.926116910105,-2326.19789092598,1579.709540850656,884.7631013272518,-32505.737133874398,0.0
-602.9617544256613,11387.403909706383,14232.629316247967,11691.165349735918,-2319.028706510024,1586.8429984339737,889.6457684543976,-32528.173584770844,0.0
-601.2945022359042,11386.391649448316,14230.664340452897,11691.284439178044,-2316.6707355559392,1589.058062057508,889.395680625934,-32533.5445186107,0.0
-600.7109639694893,11387.713542255911,14231.259787663525,11692.689694595125,-2317.1828201570793,1587.6289887520022,886.4303535170089,-32511.191430323743,0.0
-601.3897737896046,11391.226680798613,14234.070298497687,11694.333128896456,-2317.051821770741,1584.4373917030384,880.5592440202214,-32484.05094646334,0.0
-598.174358852216,11390.297783150036,14232.96276668592,11692.558696208787,-2316.515919281176,1586.9382699876742,878.1417283450735,-32464.913273113772,0.0
-597.4240953668252,11388.630530960278,14229.806896469592,11687.235398145778,-2321.291405910409,1585.247199909492,877.7010974092091,-32446.573499026446,0.0
-598.0076336332402,11389.178342394054,14229.568717585342,11685.079879243305,-2323.0539296538664,1585.9855544506702,882.369403540529,-32436.87961843743,0.0
-596.8405571004103,11391.214771854402,14231.85523487415,11686.639950935149,-2322.1369409495,1586.6405463823605,884.6321029409137,-32450.813083166107,0.0
-599.2699817197706,11388.154173191777,14230.104620074906,11686.890038763613,-2321.255679077771,1584.4731185356761,874.628589802371,-32474.39279270696,0.0
-601.2945022359042,11384.974485087023,14227.83001173031,11686.866220875188,-2320.7197765882065,1581.8174239762773,870.1270088900268,-32500.723468360913,0.0
-601.4016827338172,11385.998654289302,14228.092008502987,11687.235398145778,-2321.8749441768236,1581.4720645941134,872.9375197241889,-32516.729089382578,0.0
-604.3431919543173,11388.332807354964,14229.175722426327,11687.75939169113,-2322.3513019453258,1579.971537623332,874.1998678107192,-32522.993194038383,0.0
-604.2598293448294,11386.498829946231,14228.544548383063,11688.164295794355,-2320.707867643994,1585.1519283557914,879.3088048779035,-32524.42226734389,0.0
-601.806586837044,11389.214069226691,14229.902168023295,11690.022091091514,-2320.862683918757,1590.7134053030527,883.16730280277,-32501.3784602926,0.0
-599.0318028355196,11387.558725981147,14226.234213205827,11690.224543143127,-2314.7891223703564,1595.8818870912999,883.2625743564704,-32466.235165921364,0.0
-598.4006287922543,11386.367831559894,14223.86433330753,11685.877778505546,-2313.836406833352,1588.033892855229,882.0121352141525,-32445.21587938621,0.0
-597.3764595899751,11387.320547096897,14225.841218046815,11681.852555361704,-2324.8521802299615,1579.9000839580567,879.6065284832173,-32437.105888377464,0.0
-597.4836400878879,11390.750323030112,14229.294811868453,11684.651157251654,-2326.590886084994,1585.116201523154,882.0002262699401,-32450.312907509182,0.0
-599.7344305440602,11389.785698548896,14228.223006889324,11685.318058127557,-2321.291405910409,1586.390458553897,882.2026783215533,-32478.906282563516,0.0
-601.4731363990925,11388.046992693862,14225.912671712089,11680.578298330962,-2326.1383462049175,1576.7203958533057,875.9981183868143,-32509.024002477057,0.0
-600.9134160211026,11390.51214414586,14227.234564519682,11684.770246693779,-2321.160407524071,1579.757176627506,877.2485575291322,-32525.910885370457,0.0
-601.8423136696816,11395.609172268832,14229.74735174853,11688.712107228133,-2319.9576041586033,1582.4724159079676,879.2849869894785,-32532.25835263575,0.0
-601.7708600044062,11396.680977247963,14230.449979457071,11689.21228288506,-2320.398235094468,1581.3767930404128,877.8320957955472,-32521.433122346538,0.0
-601.3659559011796,11398.503045712481,14234.915833536777,11691.748888002334,-2317.4329079855424,1581.352975151988,875.3193085666991,-32491.994212253114,0.0
-602.0685836097201,11392.834388267309,14233.784483836585,11692.308608380325,-2314.157948327091,1587.8552586920407,883.1553938585574,-32460.01869704241,0.0
-601.1635038495662,11389.61897332992,14233.689212282885,11692.594423041426,-2313.3957758974875,1588.5221595679434,885.2394590957539,-32441.023931023396,0.0
-600.1750614799245,11392.489028885144,14234.975378257841,11692.796875093038,-2313.7173173912265,1588.4745237910934,885.977813636932,-32432.09222286398,0.0
-600.3536956431127,11393.060658207347,14234.201296884024,11692.034702663435,-2315.64656635366,1587.497990365664,880.4282456338833,-32445.084880999875,0.0
-602.0090388886573,11390.262056317397,14230.616704676046,11688.64065356286,-2319.588426888014,1583.60376560816,881.7025026646262,-32467.366515621557,0.0
-602.1043104423577,11391.476768627077,14230.950155113997,11687.973752686956,-2318.957252844749,1587.8314408036154,889.3480448490839,-32493.911552271333,0.0
-603.2118422541249,11394.906544560292,14234.153661107173,11690.260269975764,-2316.4801924485387,1592.571200600211,890.3841229955758,-32512.33468896815,0.0
-603.3904764173133,11393.453653366361,14233.260490291232,11689.188464996634,-2316.8374607749147,1593.226192531901,894.3498014183552,-32516.717180438365,0.0
-600.7943265789771,11392.56048255042,14233.33194395651,11689.069375554509,-2318.0402641403825,1590.6181337493524,893.7186273750901,-32501.783364395826,0.0
-602.0209478328699,11391.95312639558,14234.796744094652,11691.141531847494,-2314.9439386451195,1588.9508815595952,888.2881488141668,-32480.895076247012,0.0
-600.8062355231897,11393.013022430496,14236.499723117047,11693.22559708469,-2313.574410060676,1590.0584133713623,887.6807926593268,-32451.408530376735,0.0
-601.2349575148414,11394.072918465414,14235.951911683269,11692.189518938198,-2314.7891223703564,1590.9277662988789,888.2166951488915,-32425.566121435502,0.0
-602.4973056013719,11392.000762172429,14233.963117999774,11691.058169238006,-2316.2658314527125,1589.224787276484,885.6086363663429,-32414.94334319791,0.0
-604.7242781691189,11391.667311734478,14232.676952024818,11687.94993479853,-2318.480895076247,1591.0111289083666,886.6208966244097,-32429.48416408143,0.0
-603.9144699626654,11390.55977992271,14228.735091490464,11683.996165319963,-2321.9940336189497,1592.3568396043847,890.2293067208127,-32450.515359560795,0.0
-602.4615787687342,11391.452950738652,14230.426161568646,11686.199319999285,-2319.171613840575,1594.738628446895,896.4695934881893,-32477.250939317975,0.0
-601.8661315581066,11392.04839794928,14231.89096170679,11688.771651949197,-2318.0998088614456,1593.2381014761136,896.6601365955901,-32496.24570533699,0.0
-600.7705086905521,11392.42948416408,14233.546304952333,11690.98671557273,-2316.2181956758623,1592.2496591064719,894.2902566972925,-32512.691957294526,0.0
-599.3057085524082,11393.21547448211,14234.32038632615,11692.29669943611,-2313.955496275478,1589.5106019375853,888.6335081963308,-32509.083547198123,0.0
-600.3536956431127,11397.752782227091,14237.488165486688,11696.857825069517,-2309.0966470367566,1590.2370475345508,892.051375185333,-32492.411025300553,0.0
-602.2948535497585,11400.206024734876,14241.013212973603,11701.168862874461,-2304.011527857998,1590.7134053030527,890.2888514418754,-32460.935685746783,0.0
-602.3782161592464,11398.562590433545,14238.250337916292,11696.583919352628,-2308.4416551050667,1588.9270636711703,879.6303463716424,-32432.127949696616,0.0
-598.7936239512686,11390.88132141645,14231.021608779274,11688.438201511244,-2317.706813702431,1590.1417759808503,879.8804342001059,-32416.44387016869,0.0
-596.2689277782079,11394.037191632775,14235.785186464294,11695.33348021031,-2306.440952477358,1601.550544536474,888.5263276984178,-32419.14720050494,0.0
-598.9246223376066,11396.228437367885,14234.379931047213,11692.796875093038,-2308.798923431443,1591.4398509000184,889.8244026175859,-32445.454058270465,0.0
-600.0321541493738,11398.40777415878,14234.5585652104,11692.689694595125,-2310.263723569587,1589.1771514996337,892.3252809022216,-32473.32098772783,0.0
-600.9015070768901,11398.241048939804,14235.987638515908,11694.702306167046,-2309.311008032583,1592.0114802222208,892.1466467390334,-32497.18651192978,0.0
-604.4622813964428,11388.3685341876,14226.686753085905,11685.639599621294,-2318.02835519617,1586.7358179360608,884.3343793356,-32513.251677672517,0.0
-606.3438945820259,11385.546114409226,14222.42335105781,11681.519104923753,-2321.1246806914332,1584.234939651425,884.7869192156769,-32509.309817138164,0.0
-606.1057156977748,11390.297783150036,14226.817751472243,11684.794064582204,-2315.027301254607,1585.6282861242937,877.9869120703104,-32496.829243603406,0.0
-605.676993706123,11392.310394721955,14232.021960093127,11688.676380395495,-2312.7407839657976,1585.7116487337814,874.1998678107192,-32469.343400360838,0.0
-602.0090388886573,11392.52475571778,14230.366616847583,11683.817531156776,-2321.005591249308,1584.2111217630002,876.8674713143306,-32441.023931023396,0.0
-596.4594708856087,11399.074675034684,14234.630018875678,11689.39091704825,-2316.194377787437,1590.2251385903382,889.0860480764078,-32423.97032291102,0.0
-599.6153411019346,11400.384658898065,14237.011807718187,11693.892497960594,-2312.5502408583966,1591.8685728916703,888.9907765227074,-32435.903085012,0.0
-603.2118422541249,11391.48867757129,14232.629316247967,11691.427346508595,-2315.03921019882,1587.7480781941279,886.3827177401588,-32456.624647941837,0.0
-604.188375679554,11385.962927456667,14229.74735174853,11691.201076568557,-2314.4675808766174,1586.1284617812207,886.215992521183,-32485.146569330893,0.0
-603.3904764173133,11385.760475405052,14227.68710439976,11687.94993479853,-2316.30155828535,1581.9007865857652,879.8685252558934,-32508.107013772693,0.0
-604.2121935679793,11385.951018512455,14225.424404999374,11682.936269285046,-2321.160407524071,1578.9354594768402,879.8804342001059,-32523.243281866842,0.0
-603.4381121941634,11386.486921002019,14225.102863505635,11682.90054245241,-2321.8987620652492,1580.8051637182105,879.3683495989662,-32515.895463287703,0.0
-602.0328567770824,11386.355922615681,14225.424404999374,11683.198266057721,-2321.0413180819455,1580.6265295550224,877.6415526881464,-32490.112599067525,0.0
-602.973663369874,11388.26135368969,14227.139292965981,11682.579000958669,-2321.7796726231236,1577.8279276650728,871.1392691480936,-32466.520980582467,0.0
-603.0332080909367,11388.952072454016,14227.484652348146,11685.32996707177,-2319.588426888014,1577.2205715102327,867.8524005454296,-32454.71921686783,0.0
-601.4255006222422,11385.522296520801,14225.722128604688,11682.686181456582,-2320.946046528245,1578.0422886608987,870.4366414395532,-32435.64108823932,0.0
-600.3775135315378,11385.712839628202,14226.889205137517,11683.353082332485,-2320.7674123650568,1580.4240775034089,875.3788532877618,-32440.976295246546,0.0
-600.2107883125622,11385.22457291549,14225.186226115124,11682.317004185992,-2320.3029635407675,1585.2114730768544,882.8457613090312,-32462.245669610158,0.0
-601.4731363990925,11386.54646572308,14224.98377406351,11680.328210502497,-2322.029760451587,1581.6864255899393,882.798125532181,-32486.5756426364,0.0
-602.9379365372362,11388.320898410751,14226.901114081731,11679.851852733997,-2324.494911903585,1579.5547245758928,878.7133576672759,-32511.46533604063,0.0
-601.9256762791695,11389.964332712083,14229.497263920068,11683.10299450402,-2322.3274840569006,1582.6272321827307,881.1427822866364,-32520.766221470632,0.0
-600.9610517979529,11391.155227133338,14230.318981070732,11684.555885697953,-2321.1127717472204,1584.032487599812,884.0009288976486,-32512.33468896815,0.0
-600.7585997463394,11391.929308507155,14231.1406982214,11683.412627053549,-2323.7684663066198,1584.8303868620528,885.6681810874056,-32492.149028527874,0.0
-600.7943265789771,11391.834036953454,14232.045777981553,11686.354136274049,-2317.682995814006,1586.068917060158,886.7876218433855,-32461.22150040788,0.0
-600.401331419963,11391.1195003007,14231.545602324626,11686.235046831924,-2318.695256072073,1582.2461459679291,883.512662184934,-32433.997653937986,0.0
-596.6381050487969,11395.561536491981,14235.308828695792,11690.688991967418,-2312.7050571331597,1587.7480781941279,883.5722069059967,-32417.825307697345,0.0
-595.4233927391167,11396.728613024812,14236.666448336024,11691.701252225484,-2311.561798488755,1591.737574505332,888.6930529173936,-32425.435123049163,0.0
-595.494846404392,11395.621081213045,14236.332997898071,11690.653265134779,-2313.181414901662,1592.9880136476502,892.8135476149362,-32443.739170303852,0.0
-599.3057085524082,11393.453653366361,14233.855937501861,11688.795469837622,-2315.027301254607,1591.7018476726944,890.300760386088,-32467.616603450017,0.0
-599.7582484324853,11393.8704664138,14231.998142204702,11688.021388463807,-2315.0987549198826,1591.1659451831297,890.6223018798268,-32487.099636181752,0.0
-598.5316271785925,11392.143669502979,14231.497966547775,11688.140477905932,-2316.432556671688,1588.0458017994415,892.396734567497,-32499.508756051233,0.0
-597.7575458047767,11390.119148986845,14231.224060830886,11686.770949321486,-2318.206989359358,1583.9848518229617,890.4793945492762,-32496.79351677077,0.0
-597.6027295300134,11391.179045021763,14232.36731947529,11688.140477905932,-2314.050767829178,1583.1393167838705,883.3102101333205,-32483.610315527476,0.0
-595.8282968423434,11390.297783150036,14231.462239715136,11687.890390077468,-2314.0388588849655,1582.0198760278906,876.2839330479155,-32455.409935632153,0.0
-596.3522903876956,11387.66590647906,14228.34209633145,11685.163241852793,-2317.6234510929435,1583.1035899512328,877.3795559154703,-32430.877510554303,0.0
-594.1014999315236,11387.42772759481,14227.83001173031,11683.484080718823,-2319.7075163301397,1582.9487736764697,881.2975985613995,-32411.620747762605,0.0
-592.9344233986935,11388.952072454016,14229.997439576993,11685.877778505546,-2318.8977081236862,1583.60376560816,880.5592440202214,-32414.038263437757,0.0
-593.4226901114082,11389.130706617205,14230.009348521207,11686.068321612947,-2318.504712964672,1585.4972877379555,882.5242198152922,-32428.352814381244,0.0
-594.9827618032523,11389.071161896141,14229.223358203179,11685.484783346534,-2318.4451682436093,1585.4734698495304,886.0492673022072,-32457.315366706167,0.0
-594.5183129789629,11390.381145759522,14229.74735174853,11686.4970436046,-2317.254273822354,1585.271017797917,885.2632769841789,-32480.895076247012,0.0
-595.2209406875033,11391.929308507155,14232.807950411156,11689.67673170935,-2313.5625011164634,1587.7480781941279,885.7277258084684,-32490.68422838973,0.0
-602.5568503224346,11391.155227133338,14232.307774754228,11689.414734936674,-2312.597876635247,1588.212527018417,884.94173549044,-32486.635187357464,0.0
-601.7351331717686,11389.392703389882,14232.010051148914,11690.510357804229,-2309.1561917578197,1589.939323929237,880.5354261317963,-32477.763023919117,0.0
-599.1032565007949,11389.273613947755,14230.02125746542,11687.783209579553,-2313.502956395401,1586.6167284939354,878.8562649978265,-32449.59837085643,0.0
-597.507457976313,11392.107942670342,14229.723533860106,11684.663066195866,-2317.230455933929,1586.9859057645244,884.9655533788651,-32420.266641260914,0.0
-594.8636723611268,11394.346824182301,14231.331241328799,11685.639599621294,-2316.1348330663745,1591.1659451831297,886.66853240126,-32403.760844582324,0.0
-595.149487022228,11388.320898410751,14228.973270374714,11685.365693904405,-2315.8728362936986,1590.9277662988789,891.360656421005,-32412.62109907646,0.0
-596.4713798298211,11387.773086976975,14228.723182546251,11685.139423964367,-2315.9204720705484,1587.3312651466883,889.7053131754603,-32431.28241465753,0.0
-595.2090317432908,11389.85715221417,14229.568717585342,11686.4970436046,-2314.074585717603,1585.8188292316945,880.1424309727821,-32461.60258662268,0.0
-594.2563162062867,11392.131760558766,14231.6170559899,11689.283736550336,-2311.002078110765,1587.867167636253,880.5116082433711,-32484.515395287628,0.0
-592.6366997933799,11395.418629161431,14232.748405690092,11690.98671557273,-2310.4066309001373,1589.1771514996337,884.6440118851264,-32497.650960754076,0.0
-592.207977801728,11391.214771854402,14229.37817447794,11686.985310317314,-2312.6812392447346,1587.736169249915,885.7872705295312,-32494.816632031485,0.0
-592.3032493554284,11388.535259406577,14228.485003662001,11685.80632484027,-2312.502605081547,1586.8549073781865,885.287094872604,-32477.34621087167,0.0
-590.564543500396,11389.273613947755,14228.889907765228,11686.675677767787,-2313.574410060676,1585.9855544506702,884.3462882798125,-32450.932172608234,0.0
-587.6706700567461,11392.084124781917,14229.032815095776,11686.890038763613,-2314.050767829178,1586.8787252666114,884.6916476619765,-32424.422862791096,0.0
-587.515853781983,11387.546817036935,14225.710219660476,11684.174799483151,-2315.6346574094473,1585.7116487337814,881.9644994373024,-32405.856818763736,0.0
-590.1477304529567,11384.093223215295,14221.696905460845,11680.090031618247,-2319.409792724826,1582.43668907533,876.593565597442,-32408.595875932617,0.0
-591.8268915869263,11387.463454427447,14225.329133445675,11682.650454623945,-2316.6707355559392,1584.6279348104392,880.2377025264825,-32426.995194741008,0.0
-594.1610446525863,11388.332807354964,14226.829660416455,11684.49634097689,-2315.0511191430323,1586.390458553897,889.4433164027843,-32458.684895290608,0.0
-596.4475619413961,11387.130003989496,14226.210395317403,11683.722259603073,-2316.7660071096398,1586.068917060158,886.4660803496465,-32480.394900590083,0.0
-595.494846404392,11384.772033035411,14226.115123763702,11684.377251534765,-2315.5751126883847,1586.1403707254333,884.1557451724117,-32492.94692779012,0.0
-591.7078021448008,11385.998654289302,14229.42581025479,11687.771300635342,-2312.4311514162714,1588.7484295079819,887.2877975003125,-32488.481073710413,0.0
-584.3242567330193,11395.871169041508,14240.143860046086,11698.084446323412,-2302.7610887156798,1598.7281247580995,894.7308876331568,-32461.674040287955,0.0
-577.7624284719038,11404.14788526923,14245.050345061658,11701.561858033476,-2299.3313127824654,1603.646518717883,900.4233629667561,-32429.98433973836,0.0
-571.4030522624017,11405.183963415724,14242.096926896946,11698.334534151874,-2301.12956335856,1604.3610553706362,905.6632984202786,-32401.402873628234,0.0
-575.0948249682924,11401.432645988769,14237.5000744309,11693.32086863839,-2305.6073263824796,1599.3473898571522,903.6030510715073,-32387.01686901948,0.0
-586.2654146396651,11387.15382187792,14224.47168946237,11680.625934107811,-2317.813994200344,1587.8552586920407,891.9084678547823,-32409.191323143245,0.0
-596.769103435135,11374.697066231593,14214.884989371267,11673.492476524494,-2324.6140013457107,1578.8997326442025,880.22579358227,-32439.166135726235,0.0
-601.6755884507058,11366.32507845017,14210.9312198927,11671.14641451462,-2327.495965845148,1574.1004281265443,873.1518807200148,-32470.08175490202,0.0
-602.4973056013719,11365.753449127968,14209.728416527232,11669.455344436437,-2330.1873872371843,1572.8023532073764,871.0082707617556,-32495.602622349517,0.0
-601.0682322958658,11372.220005835383,14212.800924134071,11670.146063200767,-2330.9019238899373,1573.183439422178,868.6145729750328,-32508.01174221899,0.0
-604.8671854996695,11369.326132391732,14206.16764220768,11659.79719068006,-2341.274614299069,1561.4293114843904,858.8373297765287,-32500.961647245163,0.0
-607.0703401789915,11367.599335480912,14203.78585336517,11655.83151225728,-2345.5618342155876,1557.9042639974753,858.2895183427513,-32487.528358173404,0.0
-607.4395174495804,11365.67008651848,14203.607219201982,11655.450426042478,-2346.2525529799154,1559.5476982988073,860.1711315283343,-32462.436212717563,0.0
-608.4755955960724,11358.619991544649,14197.700382872556,11651.544292340763,-2348.9082475393143,1556.4394638593315,854.4310204178848,-32440.452301701192,0.0
-608.856681810874,11355.511757105174,14193.496525565524,11647.435706587432,-2353.052560125282,1550.7946243025824,842.7959819222227,-32422.017256060164,0.0
-615.6924157888782,11350.760088364366,14187.708778678227,11641.040603545292,-2358.780762291519,1546.3644970555135,844.3322357256418,-32431.258596769105,0.0
-617.8836615239876,11349.61682971996,14185.839074436855,11637.408375560464,-2364.4136929040556,1547.7697524725945,850.3462525529799,-32450.57490428186,0.0
-622.9449628143217,11346.48477739206,14183.75500919966,11636.062664864445,-2366.0333093169625,1548.019840301058,848.0001905431074,-32476.66740105156,0.0
-628.6255292037084,11339.303684031893,14177.347997213306,11633.966690683037,-2365.6045873253106,1542.851358512811,839.5210222637712,-32501.926271726377,0.0
-633.6868304940425,11327.775826034142,14164.80787895749,11621.771931809384,-2378.0494340274263,1526.7266480490173,831.5539385855747,-32525.470254434593,0.0
-635.6756241775385,11323.155155679673,14157.055156275119,11614.197843290203,-2385.623522546609,1523.5469599442663,828.0884358197223,-32534.652050422468,0.0
-635.2826290185244,11324.50086637569,14155.399813029575,11613.149856199498,-2381.562572570129,1527.7865440839341,829.3150570736151,-32523.433824974247,0.0
-638.736222840164,11319.796833411734,14151.350771997308,11604.837413139137,-2393.5072436153173,1516.1157787556344,816.4414883798477,-32499.651663381785,0.0
-644.119065624237,11306.887537885328,14139.477554617395,11590.368045920888,-2407.607433562978,1504.5521939252476,807.0572403403576,-32482.46705688307,0.0
-646.56039918781,11304.42238643333,14140.58508642916,11593.095194145562,-2403.3321225906716,1505.493000518039,811.13009926105,-32466.628161080374,0.0
-649.3351831893344,11301.957234981333,14139.477554617395,11592.392566437022,-2406.8928969102244,1499.3837121370004,809.2008502986167,-32471.939550199175,0.0
-651.3716126496805,11300.016077074686,14135.583329859892,11588.391161181604,-2414.7408911462953,1489.8327388785347,797.5419939145295,-32494.84044991991,0.0
-652.8245038436118,11300.754431615864,14134.404344382849,11587.652806640426,-2414.0263544935424,1487.9153988603139,791.5160681429788,-32522.993194038383,0.0
-658.7194312288243,11296.71729952781,14131.701014046599,11583.78239977135,-2417.1464978772306,1482.1395609172268,778.5353189512983,-32553.289548115106,0.0
-664.590540725612,11286.809057942968,14124.317468634817,11580.51934905711,-2417.718127199433,1479.4243216367652,772.6046647334481,-32572.832125567907,0.0
-666.3530644690695,11284.534449598372,14122.471582281873,11579.435635133768,-2419.313925723915,1478.1143377733845,771.4971329216809,-32568.30672676714,0.0
-670.8427364372011,11281.35476149362,14119.27998523291,11572.980987370564,-2427.8645476685265,1469.9567109877873,764.86385099529,-32555.969060562933,0.0
-672.1289024121567,11275.614650383171,14114.540225436314,11568.217409685545,-2433.2235725641744,1464.2761445984006,760.3503611387332,-32539.83244115493,0.0
-671.509637313104,11276.257733370649,14113.051607409745,11567.086059985353,-2434.438284873854,1462.1325346401416,754.3244353671826,-32514.85938514121,0.0
-671.4381836478287,11276.531639087536,14111.848804044277,11564.990085803944,-2436.438987501563,1461.1560012147122,758.3496585110246,-32493.197015618578,0.0
-673.629429382938,11270.612893813899,14109.681376197594,11564.668544310203,-2435.402909355071,1461.4179979873884,750.3587569444031,-32503.5577970835,0.0
-678.0714655742195,11265.194324197188,14105.453701002138,11561.262586265413,-2438.1657844123824,1455.987519426465,741.3198682870769,-32531.10318504713,0.0
-681.453605730584,11263.217439457905,14101.464204690932,11556.880094795197,-2444.0011670765325,1449.7353237148761,737.2351004221721,-32564.269594679085,0.0
-683.0732221434909,11262.038453980862,14099.761225668539,11554.295853901072,-2445.692237154715,1445.8291900131594,733.5671456047064,-32591.255262264724,0.0
-684.4308417837217,11263.693797226406,14101.023573755068,11555.832107704491,-2444.6442500640105,1448.068071525119,738.5450842855527,-32605.379270100806,0.0
-686.4434533556428,11264.146337106484,14101.59520307727,11555.820198760279,-2445.0967899440875,1449.1279675600358,742.7727594810082,-32600.401331419962,0.0
-687.1103542315456,11262.395722307238,14098.034428757717,11552.259424440726,-2448.443203267814,1447.2225364860278,739.2358030498806,-32581.57329061992,0.0
-685.4431020417884,11258.23950077706,14093.413758403249,11548.389017571646,-2451.6705271494156,1447.0796291554773,740.0575202005466,-32550.467128336735,0.0
-684.2998433973836,11259.656665138353,14094.414109717103,11549.472731494989,-2449.336374083756,1449.5090537748376,742.4512179872693,-32521.31403290441,0.0
-687.812981940086,11259.394668365676,14093.056490076871,11548.26992812952,-2450.2414538439093,1446.2698209490236,739.1167136077551,-32510.15535217725,0.0
-687.7058014421731,11259.144580537213,14090.507976015386,11545.221238411108,-2455.136029915268,1442.5304124662828,735.7107555629656,-32528.14976688242,0.0
-686.2171834156043,11263.276984178967,14093.092216909508,11547.495846755704,-2452.5398800769317,1446.3770014469367,741.3794130081397,-32551.312663375826,0.0
-687.4914404463472,11263.038805294716,14095.724093580482,11551.556796732184,-2447.383307232897,1449.8305952685764,744.4281027265528,-32580.870662911377,0.0
-693.8508166558494,11254.071370302667,14090.257888186921,11544.923514805794,-2454.7549437004664,1443.5903085011998,736.2466580525303,-32607.082249123203,0.0
-693.9579971537622,11251.213223691653,14090.76997278806,11544.62579120048,-2455.588569795345,1442.018327865143,730.7328168821193,-32614.227615650736,0.0
-685.9194598102905,11262.562447526214,14099.880315110664,11553.509863583044,-2447.204673069709,1450.4379514234165,739.6645250415324,-32590.504998779328,0.0
-677.5355630846547,11267.290298378597,14102.357375506874,11556.844367962558,-2442.024282337249,1457.2141406803578,751.5020155888079,-32560.804091913233,0.0
-680.4056186398794,11263.360346788455,14097.879612482955,11553.021596870329,-2445.454058270464,1452.7840134332891,747.5363371660285,-32544.36974889991,0.0
-684.5142043932095,11261.526369379722,14097.045986388077,11551.318617847934,-2447.9311186666746,1450.3069530370785,744.023198623326,-32529.99565323536,0.0
-683.2875831393168,11263.717615114832,14099.58259150535,11554.498305952686,-2445.1206078325126,1453.4628232534044,742.9156668115588,-32512.084601139682,0.0
-681.0606105715698,11267.099755271196,14103.357726820728,11559.619151964082,-2438.66596006931,1460.02465151452,755.8845070590266,-32513.370767114644,0.0
-678.905091669098,11268.647918018827,14104.679619628321,11559.916875569397,-2438.7612316230106,1460.739188167273,755.717781840051,-32536.235940002738,0.0
-680.310347086179,11271.910968733067,14107.371041020358,11562.108121304505,-2436.2722622825872,1462.251624082267,753.0144515038019,-32565.2342191603,0.0
-680.1078950345657,11274.685752734591,14110.765090120934,11566.133344448348,-2433.3426620062996,1464.1808730447,752.109371743648,-32584.598162449907,0.0
-679.2980868281122,11277.1628131308,14112.646703306518,11567.35996570224,-2432.6281253535467,1465.669491071269,756.3251379948911,-32582.323554105307,0.0
-675.725403564347,11279.699418248076,14114.218683942574,11567.812505582318,-2430.603604837413,1467.1104733209877,758.0400259614984,-32572.15331574779,0.0
-672.0574487468814,11284.498722765733,14117.36264521469,11571.194645738682,-2426.4354743630206,1473.9342983547795,763.9111354582859,-32557.14804603998,0.0
-668.3299492083529,11289.714840330831,14124.674736961193,11577.57783983661,-2421.219356797923,1480.0554956800306,773.057204613525,-32526.649239911636,0.0
-667.2343263407982,11286.439880672378,14123.57911409364,11579.340363580066,-2420.957360025247,1481.4012063760485,775.2484503486344,-32499.782661768117,0.0
-666.7460596280837,11284.617812207858,14123.769657201039,11582.543869573243,-2416.9083189929797,1482.2348324709274,780.2025711410555,-32485.646744987822,0.0
-667.1033279544602,11286.880511608242,14125.663179330837,11584.663661643077,-2413.716721944016,1486.8078670485468,783.7990722932458,-32493.268469283852,0.0
-666.4959717996201,11290.572284314134,14126.210990764614,11582.686776903793,-2414.6456195925953,1486.641141829571,787.0144872306346,-32520.19459214843,0.0
-663.5187357464824,11296.002762875058,14130.117124466331,11587.140722039287,-2408.4529686020687,1487.7367646971256,782.4652705414402,-32548.883238756465,0.0
-666.1029766406059,11294.3355106853,14127.437612018506,11583.579947719734,-2413.931082939842,1478.578786597674,770.1752401140877,-32567.961367384974,0.0
-666.3292465806444,11294.490326960062,14126.270535485677,11579.423726189554,-2419.43301516604,1473.7199373589533,762.6368784275429,-32575.047189191442,0.0
-665.4837115415532,11296.884024746787,14129.87894558208,11584.056305488237,-2414.252624433581,1477.0782596268928,760.2789074734579,-32563.090609202038,0.0
-664.1141829571098,11301.147426774878,14135.845326632567,11588.605522177431,-2409.1675052548217,1484.9143449187513,773.9741933178914,-32536.557481496475,0.0
-660.1008687574803,11304.362841712267,14137.572123543387,11590.368045920888,-2407.083440017625,1494.9178580572939,781.5959176139239,-32507.571111283127,0.0
-659.5054215468527,11306.911355773753,14138.620110634092,11591.130218350492,-2407.142984738688,1493.4530579191503,782.334272155102,-32483.669860248538,0.0
-659.0647906109883,11304.19611649329,14135.464240417767,11587.271720425626,-2411.811290870008,1488.9038412299558,782.4295437088024,-32475.071602527078,0.0
-659.2672426626018,11303.314854621563,14135.511876194614,11588.700793731132,-2409.941586628637,1492.2502545536825,787.4908449991366,-32485.50383765727,0.0
-655.468289458798,11310.293495930116,14144.145860748717,11598.704306869673,-2402.057865559929,1499.3837121370004,793.4095902727744,-32505.11786877534,0.0
-655.7421951756867,11311.698751347198,14146.765828475476,11601.050368879547,-2400.4025223143844,1502.0632245848244,796.4463710469748,-32533.568336499127,0.0
-659.9341435385046,11311.817840789323,14148.766531103183,11602.324625910289,-2396.698840664281,1501.5868668163223,794.2789432002905,-32558.08885263277,0.0
-662.4707486557778,11315.116618336202,14153.88737711458,11607.993283355465,-2392.1496239750863,1501.491595262622,791.3017071471528,-32566.12738997624,0.0
-659.5173304910653,11310.62694636807,14148.159174948345,11603.765608160009,-2393.650150945868,1505.6835436254398,798.1612590135821,-32557.27904442632,0.0
-656.8616359316665,11307.17335254643,14142.264247563131,11599.156846749751,-2394.519503873384,1508.6131439017274,799.542696542238,-32533.10388767484,0.0
-656.051827725213,11309.483687723665,14146.646739033351,11601.252820931159,-2393.9002387743317,1508.327329240626,797.6968101892927,-32503.545888139288,0.0
-653.717674659553,11309.45986983524,14145.932202380598,11598.049314937985,-2399.44980677738,1506.0646298402414,797.9111711851186,-32478.75146628876,0.0
-649.3828189661846,11314.104358078135,14149.481067755938,11601.741087643875,-2397.889735085536,1506.4099892224053,799.9476006454647,-32462.97211520713,0.0
-649.5376352409477,11317.760403951388,14148.718895326336,11603.551247164181,-2394.3170518217707,1506.2313550592173,800.8645893498311,-32479.52554766257,0.0
-653.0626827278628,11320.535187952912,14149.052345764287,11602.205536468164,-2397.0680179348697,1502.2656766364375,800.6859551866429,-32506.797029909314,0.0
-651.490702091806,11316.664781083831,14150.683871121404,11603.658427662096,-2396.841747994831,1497.1448306250409,793.1475935000983,-32533.961331658138,0.0
-652.44341762881,11308.90014945725,14148.706986382122,11604.587325310673,-2393.2690647310665,1496.0492077574863,778.4757742302356,-32552.11056263807,0.0
-653.9915803764417,11311.401027741886,14150.636235344557,11606.730935268932,-2391.8042645929227,1498.6215397073972,780.5241126347944,-32564.829315057075,0.0
-653.2770437236887,11314.640260567698,14151.839038710023,11606.314122221494,-2392.137715030874,1500.9556927730573,786.1570432473309,-32554.194627875266,0.0
-650.8238012159032,11314.342536962386,14151.82712976581,11606.564210049959,-2392.3282581382746,1500.5507886698304,786.0498627494179,-32521.3973955139,0.0
-648.549192871306,11315.712065546828,14153.470564067142,11608.052828076527,-2390.410918120054,1502.7896701817901,792.3496942378573,-32486.06355803526,0.0
-650.4784418337392,11313.032553099005,14149.49297670015,11602.872437344067,-2395.269767358775,1500.9676017172696,791.8614275251427,-32471.68946237071,0.0
-649.716269404136,11314.306810129749,14150.076514966566,11604.015695988472,-2393.400063117404,1504.7308280884358,795.3983839562703,-32474.166522766925,0.0
-649.2160937472089,11317.974764947214,14154.042193389345,11608.850727338768,-2388.3030349944324,1510.244669258847,796.6130962659505,-32479.31118666675,0.0
-650.537986554802,11321.047272554051,14155.768990300165,11609.124633055657,-2388.576940711321,1508.8989585628285,794.74339202458,-32501.842909116887,0.0
-649.1803669145712,11323.679149225025,14158.78195318594,11611.554057675017,-2387.4455910111287,1508.5059634038143,795.6127449520963,-32530.483919948074,0.0
-649.5852710177979,11323.6553313366,14158.817680018577,11612.209049606707,-2387.7671325048677,1507.1959795404339,797.9468980177562,-32553.027551342435,0.0
-647.4535700037513,11323.452879284987,14159.234493066017,11613.828666019614,-2385.9212461519223,1509.470587885031,797.768263854568,-32563.221607588377,0.0
-644.6073323369517,11327.430466651978,14162.914356827694,11616.031820698934,-2384.1349045200395,1508.9465943396788,797.7920817429931,-32545.13192132951,0.0
-644.9169648864779,11329.859891271339,14164.069524416313,11616.222363806337,-2385.456797327633,1505.6359078485896,794.6243025824544,-32518.01525535754,0.0
-647.3344805616258,11328.704723682722,14163.271625154071,11615.305375101969,-2385.980790872985,1501.7178652026605,791.0635282629017,-32491.648852870945,0.0
-643.9999761821115,11333.944659136245,14169.60718347515,11621.748113920961,-2379.6928683287583,1510.4113944778226,797.8278085756307,-32466.711523689864,0.0
-642.7019012629435,11337.707885507409,14174.370761160168,11626.74987049023,-2373.77412305512,1518.5809302076323,803.2940139691915,-32452.694696351697,0.0
-642.0707272196784,11340.839937835312,14176.490553230004,11629.381747161206,-2372.166415586426,1518.7357464823956,803.8418254029689,-32469.414854026116,0.0
-641.5705515627511,11342.971638849358,14178.122078587123,11630.644095247735,-2371.3327894915474,1520.4863612816407,801.9006674963231,-32496.317159002265,0.0
-642.6185386534556,11340.31594428996,14174.430305881231,11628.714846285302,-2372.333140805402,1521.7368004239584,804.3181831714709,-32529.364479192092,0.0
-646.0721324750954,11335.064099892223,14168.07092967173,11624.772985750948,-2374.5243865405114,1520.0100035131386,803.865643291394,-32547.335076008836,0.0
-646.1793129730083,11337.124347240995,14168.618741105507,11624.296627982447,-2374.6792028152745,1521.0937174364808,808.212407928975,-32550.38376572725,0.0
-646.5365812993849,11330.491065314603,14162.699995831868,11617.532347669718,-2380.3121334278107,1517.0565853484259,802.8295651449021,-32537.129110818678,0.0
-645.8696804234821,11328.156912248944,14161.830642904353,11615.531645042009,-2381.0623969132016,1518.700019649758,799.518878653813,-32511.17952137953,0.0
-646.0125877540327,11327.394739819341,14164.069524416313,11614.066844903866,-2381.812660398592,1520.605450723766,802.6271130932887,-32483.193502480037,0.0
-645.8220446466319,11326.704021055013,14162.866721050845,11613.209400920561,-2382.610559660833,1522.7133338493875,811.7970001369528,-32462.233760665946,0.0
-647.1677553426501,11327.62100975938,14163.497895094111,11616.19854591791,-2381.5387546817037,1522.5823354630495,810.8442845999488,-32452.194520694768,0.0
-646.5723081320225,11327.799643922568,14163.640802424661,11615.96036703366,-2384.373083404291,1519.7480067404624,810.2369284451087,-32462.102762279606,0.0
-646.2031308614335,11327.883006532054,14163.736073978362,11616.972627291727,-2382.7296491029583,1520.736449110104,814.5003304732019,-32484.074764351764,0.0
-646.5484902435974,11325.85848601592,14161.604372964315,11616.71063051905,-2381.693570956467,1520.0695482342012,814.8218719669408,-32511.667788092247,0.0
-645.6315015392311,11323.691058169237,14159.56794350397,11616.865446793814,-2378.025616139001,1521.9154345871466,811.7017285832524,-32533.520700722274,0.0
-644.4048802853383,11327.597191870955,14161.008925753686,11615.460191376733,-2381.4077562953657,1517.4853073400777,807.3430550014589,-32541.487784400477,0.0
-643.3926200272715,11331.789140233772,14161.378103024275,11615.460191376733,-2381.157668466902,1516.8779511852376,804.794540939973,-32529.78129223954,0.0
-644.7264217790771,11332.4798589981,14159.06776784704,11615.305375101969,-2380.252588706748,1517.1161300694887,805.9973443054406,-32507.475839729424,0.0
-643.6069810230974,11332.158317504362,14161.794916071714,11618.735151035184,-2376.513180224007,1518.4380228770817,806.676154125556,-32476.39349533467,0.0
-643.0472606451075,11328.395091133194,14163.31926093092,11621.295574040883,-2376.358363949244,1516.28250397461,798.0898053483068,-32450.801174221895,0.0
-643.2854395293585,11327.025562548752,14164.117160193164,11619.92604545644,-2379.192692671831,1515.4131510470938,796.3153726606367,-32443.13181414902,0.0
-642.9877159240447,11324.893861534705,14160.55638587361,11614.983833608232,-2381.002852192139,1514.1627119047762,801.6505796678595,-32458.08944807998,0.0
-645.4885942086804,11325.501217689545,14159.794213444007,11615.281557213544,-2379.192692671831,1514.8415217248914,798.720979391572,-32480.561625809063,0.0
-647.0129390678869,11326.072847011748,14163.283534098284,11618.532698983572,-2376.0010956228675,1517.8306667222416,802.936745642815,-32510.476893670988,0.0
-648.1561977122918,11323.012248349123,14160.663566371522,11614.209752234416,-2381.264848964815,1513.0909069256466,795.6484717847339,-32536.093032672186,0.0
-648.096652991229,11324.846225757854,14163.343078819347,11615.757914982047,-2381.89602300808,1512.3406434402557,794.4933041961165,-32542.357137327992,0.0
-645.39332265498,11327.263741433002,14165.165147283868,11619.187690915262,-2377.584985203137,1518.9739253666467,803.4369212997422,-32529.221571861548,0.0
-644.1428835126621,11328.79999523642,14166.820490529411,11621.748113920961,-2373.488308394019,1523.1301468968268,806.7595167350438,-32504.200880070977,0.0
-641.1537385153119,11332.205953281213,14168.99982732031,11622.653193681115,-2374.1194824372847,1521.7606183123835,805.2232629316248,-32468.74795315021,0.0
-639.6055757676803,11336.374083755605,14170.893349450105,11625.177889854174,-2372.36886763804,1522.010706140847,803.8299164587563,-32442.393459607836,0.0
-638.6290423422512,11335.14746250171,14170.428900625813,11624.534806866697,-2373.5359441708697,1523.2492363389522,807.8313217141733,-32443.52480930803,0.0
-641.6181873396014,11330.75306208728,14167.284939353702,11621.081213045058,-2376.929993271446,1521.0460816596305,807.5931428299224,-32471.546555040164,0.0
-640.8679238542107,11330.764971031493,14168.142383337005,11621.962474916785,-2375.882006180742,1521.379532097582,805.8425280306774,-32489.481425024267,0.0
-637.7954162473725,11334.20665590892,14170.059723355225,11623.427275054928,-2374.3338434331104,1522.3917923556487,809.9392048397949,-32511.763059645946,0.0
-639.3793058276418,11334.409107960533,14167.868477620115,11622.784192067451,-2374.4767507636607,1522.9276948452134,809.6772080671188,-32535.16413502361,0.0
-640.3082034762208,11337.112438296783,14169.52382086566,11624.32044587087,-2372.7023180759907,1526.0002024520516,809.1055787449163,-32542.333319439564,0.0
-641.1180116826743,11338.065153833788,14170.833804729042,11626.797506267081,-2370.904067499896,1526.2860171131529,807.9623201005115,-32527.411412341236,0.0
-638.736222840164,11342.947820960931,14173.453772455803,11626.440237940706,-2371.4995147105233,1528.0128140239726,813.0831661119083,-32501.12837246414,0.0
-637.7715983589475,11341.459202934364,14172.632055305137,11623.28436772438,-2376.0844582323552,1528.2271750197986,815.2148671259549,-32470.998743606386,0.0
-641.4038263437754,11332.825218380265,14167.249212521063,11620.616764220767,-2377.4063510399483,1526.2621992247277,812.8926230045075,-32447.252308846557,0.0
-641.1894653479495,11329.038174120673,14163.902799197338,11616.686812630625,-2379.1093300623434,1521.5581662607701,809.8439332860945,-32437.987150249195,0.0
-641.308554790075,11328.990538343824,14163.08108204667,11616.269999583188,-2378.6329722938412,1521.403349986007,811.8684538022281,-32449.110104143718,0.0
-640.3439303088584,11329.383533502838,14165.64150505237,11620.938305714506,-2373.9170303856713,1527.8341798607844,816.4295794356351,-32476.905579935807,0.0
-642.2850882155043,11331.086512525231,14167.094396246299,11621.212211431395,-2375.7152809617664,1526.5837407184665,813.7143401551735,-32507.452021841,0.0
-643.8451599073484,11333.242031427702,14168.130474392792,11623.224823003316,-2373.178675844493,1526.7385569932296,816.0484932208335,-32526.95887246116,0.0
-644.3453355642755,11332.289315890699,14166.582311645161,11622.81991890009,-2372.333140805402,1524.773581198159,813.9525190394246,-32535.485676517346,0.0
-643.0948964219577,11331.848684954835,14166.320314872486,11622.045837526273,-2372.011599311663,1524.1900429317438,806.0211621938657,-32522.183385831926,0.0
-645.1432348265165,11329.609803442876,14165.54623349867,11621.807658642023,-2370.761160169345,1523.916137214855,804.2824563388333,-32497.61523392144,0.0
-646.9176675141865,11329.133445674373,14165.391417223906,11619.664048683764,-2375.203196360627,1520.8674474964423,807.5216891646471,-32475.72659445877,0.0
-644.2619729547877,11331.801049177986,14166.510857979885,11619.687866572189,-2376.4774533913696,1525.3928462972115,811.4873675874264,-32448.94337892474,0.0
-642.6423565418808,11330.312431151415,14164.605426905877,11617.246533008616,-2378.168523469552,1530.156423982232,817.0845713673255,-32434.79555320023,0.0
-643.9285225168362,11331.12223935787,14164.10525124895,11616.269999583188,-2378.2280681906145,1529.382342608416,818.6684609475947,-32446.656861635933,0.0
-646.2507666382837,11332.11068172751,14166.15358965351,11617.63952816763,-2376.9538111598717,1526.2383813363026,809.3199397407423,-32471.83236970126,0.0
-645.845862535057,11330.824515752554,14163.59316664781,11615.35301087882,-2380.4431318141487,1523.4516883905658,813.1546197771836,-32497.234147706633,0.0
-642.4279955460548,11332.956216766603,14165.284236725993,11619.806956014314,-2378.168523469552,1524.5592202023329,821.8600579965583,-32514.787931475934,0.0
-641.9397288333403,11334.742558398486,14167.523118237952,11623.998904377133,-2375.024562197438,1526.8576464353553,819.7640838151493,-32522.83837776362,0.0
-642.2731792712917,11332.039228062236,14165.796321327132,11622.629375792689,-2374.8102012016125,1525.4523910182743,818.5612804496817,-32512.406142633426,0.0
-641.391917399563,11333.539755033016,14167.880386564328,11623.20100511489,-2374.2028450467724,1521.5462573165576,814.5598751942647,-32493.578101833384,0.0
-644.22624612215,11331.277055632632,14167.284939353702,11622.30783429895,-2375.3699215796023,1515.67514781977,801.0551324572319,-32465.079998332745,0.0
-641.7610946701519,11332.89667204554,14168.654467938144,11624.117993819258,-2371.987781423238,1518.2593887138935,797.6729923008676,-32446.942676297032,0.0
-637.2118779809576,11337.767430228472,14173.918221280092,11629.488927659118,-2366.7954817465657,1522.3679744672236,801.9602122173858,-32436.855800549,0.0
-637.2356958693828,11342.74536890932,14178.038715977635,11632.930612536546,-2363.63961153024,1525.3571194645738,806.7714256792564,-32442.393459607836,0.0
-635.187357464824,11345.22242930553,14178.836615239876,11632.632888931232,-2364.651871788307,1527.0124627101184,808.7840372511776,-32455.8267486796,0.0
-634.6752728636842,11344.66270892754,14176.073740182565,11629.465109770692,-2368.9152738164,1524.9760332497722,802.8057472564769,-32493.459012391257,0.0
-640.594018137322,11339.85149546567,14171.929427596597,11626.047242781691,-2371.880600925325,1521.1175353249057,799.2211550484991,-32531.329454987164,0.0
-645.2504153244294,11330.288613262992,14163.164444656159,11617.818162330817,-2379.966774045647,1513.0194532603712,792.5402373452581,-32539.92771270863,0.0
-649.263729524059,11325.62030713167,14161.0208346979,11617.139352510703,-2379.811957770884,1513.9959866858003,794.9220261877683,-32526.113337422074,0.0
-649.5376352409477,11326.489660059187,14163.164444656159,11618.56842581621,-2376.167820841843,1517.5448520611403,801.6148528352219,-32499.723117047055,0.0
-647.1201195657999,11328.025913862606,14164.772152124853,11618.318337987746,-2377.2038989883354,1516.973222738938,800.8288625171934,-32473.606802388935,0.0
-647.0248480120995,11326.894564162414,14162.033094955967,11615.638825539922,-2380.669401754187,1515.436968935519,795.8866506689849,-32457.72027080939,0.0
-645.0479632728161,11329.002447288036,14163.104899935097,11619.0328746405,-2376.989537992509,1518.485658653932,798.3160752883454,-32450.181909122846,0.0
-642.9162622587694,11331.693868680073,14165.165147283868,11621.629024478836,-2372.214051363276,1524.8807616960719,805.5448044253636,-32459.45897666442,0.0
-644.8812380538403,11328.335546412132,14160.74692898101,11619.78313812589,-2373.940848274096,1521.2842605438816,801.8530317194729,-32485.730107597312,0.0
-646.0125877540327,11325.85848601592,14156.173894403391,11617.07980778964,-2376.7632680524707,1515.9014177598083,796.4940068238251,-32515.169017690736,0.0
-644.2143371779374,11333.992294913094,14165.27232778178,11621.414663483009,-2373.3573100076815,1519.545554688849,804.8540856610357,-32538.129462132532,0.0
-642.0826361638908,11336.302630090328,14171.834156042894,11628.381395847351,-2368.8200022626993,1523.7255941074543,806.5213378507929,-32542.202321053224,0.0
-639.7961188750811,11337.112438296783,14170.54799006794,11626.392602163854,-2372.1187798095757,1525.5952983488248,810.1535658356208,-32526.387243138957,0.0
-641.0227401289739,11332.408405332824,14164.891241566978,11620.223769061755,-2376.810903829321,1522.9157859010008,809.1889413544043,-32508.09510482848,0.0
-642.1779077175912,11330.895969417832,14163.164444656159,11617.40134928338,-2378.978331676005,1523.499324167416,811.3801870895136,-32478.560923181354,0.0
-643.2497126967208,11327.930642308906,14158.996314181766,11613.57857819115,-2380.4074049815113,1521.796345145021,808.8673998606653,-32454.528673760426,0.0
-644.1547924568747,11325.10822253053,14159.365491452354,11614.32884167654,-2381.360120518515,1515.7704193734705,798.9829761642482,-32442.774545822638,0.0
-645.0479632728161,11324.608046873604,14160.46111431991,11616.508178467438,-2378.5019739075033,1515.305970549181,797.1013629786651,-32457.970358637853,0.0
-643.9999761821115,11329.20489933965,14164.593517961664,11619.366325078448,-2375.667645184916,1521.0460816596305,806.5808825718556,-32488.516800543042,0.0
-644.4167892295509,11329.07390095331,14164.61733585009,11618.163521712982,-2375.9177330133793,1521.319987376519,804.3062742272584,-32516.95535932262,0.0
-644.1786103452998,11328.811904180635,14165.141329395443,11617.627619223418,-2377.382533151523,1520.9627190501426,805.1279913779244,-32538.93927033899,0.0
-641.4752800090507,11329.312079837562,14166.11786282087,11619.473505576361,-2374.14330032571,1524.6664007002457,808.4744047016512,-32546.275179973916,0.0
-639.2721253297289,11331.384236130545,14165.796321327132,11619.366325078448,-2374.9769264205884,1524.7616722539462,807.1644208382705,-32530.67446305548,0.0
-639.7842099308687,11332.467950053886,14166.272679095635,11620.962123602932,-2374.3219344888976,1525.2975747435112,806.0092532496532,-32505.52277287857,0.0
-635.7113510101761,11334.778285231121,14169.452367200385,11624.54671581091,-2371.6543309852864,1523.2849631715899,806.46179312973,-32472.7255405172,0.0
-640.4749286951965,11332.408405332824,14170.023996522588,11625.39225085,-2369.2725421427763,1523.4278705021406,808.7483104185399,-32450.43199695131,0.0
-644.0595209031743,11326.442024282338,14162.449908003406,11616.829719961177,-2377.4063510399483,1518.6285659844825,808.903126693303,-32441.345472517132,0.0
-640.8441059657856,11327.418557707766,14160.842200534711,11616.853537849602,-2376.6918143871953,1517.6043967822034,802.3889342090378,-32449.46737247009,0.0
-642.0230914428282,11329.061992009098,14161.747280294865,11617.651437111843,-2376.5369981124322,1517.3066731768895,798.7805241126348,-32473.571075556298,0.0
-642.4399044902674,11330.669699477794,14164.28388541214,11619.83077390274,-2373.809849887758,1521.3557142091568,804.6278157209972,-32496.12661589487,0.0
-641.6539141722391,11331.217510911569,14162.866721050845,11619.009056752073,-2374.0361198277965,1525.166576357173,810.0463853377079,-32508.09510482848,0.0
-642.0469093312532,11333.21821353928,14164.0576154721,11618.223066434044,-2376.334546060819,1524.5473112581203,809.5223917923556,-32520.932946689612,0.0
-642.1659987733788,11331.277055632632,14164.212431746862,11618.437427429872,-2377.22771687676,1522.1297955829727,806.4260662970925,-32521.69511911921,0.0
-639.8318457077188,11331.87250284326,14165.748685550281,11621.760022865174,-2371.9758724790254,1525.857295121501,810.5822878272727,-32486.015922258408,0.0
-640.5463823604719,11337.24343668312,14169.178461483496,11623.76072549288,-2372.4284123591024,1525.9406577309887,808.6292209764143,-32448.419385379388,0.0
-640.2962945320082,11337.660249730561,14170.726624231129,11624.237083261383,-2371.594786264224,1527.2506415943694,811.6421838621897,-32422.60079432658,0.0
-640.3677481972835,11333.78984286148,14168.77355738027,11622.605557904264,-2372.6070465222906,1523.1063290084016,809.617663346056,-32417.444221482543,0.0
-640.4153839741338,11335.266551943838,14173.942039168518,11626.011515949052,-2370.8802496114704,1522.832423291513,804.9493572147361,-32431.103780494337,0.0
-640.7131075794475,11330.038525434527,14168.237654890707,11622.700829457965,-2373.77412305512,1521.4748036512824,797.3752686955538,-32453.7426834424,0.0
-640.0223888151196,11328.823813124847,14166.213134374571,11621.807658642023,-2374.452932875236,1521.2604426554562,803.1868334712785,-32485.456201880417,0.0
-639.4031237160668,11330.56251897988,14166.498949035673,11622.534104238988,-2372.190233474851,1523.8565924937925,808.9269445817281,-32506.058675368135,0.0
-638.9029480591398,11332.158317504362,14168.99982732031,11624.237083261383,-2370.320529233481,1525.8096593446508,809.6652991229063,-32515.37146974235,0.0
-638.6766781191013,11332.837127324477,14170.047814411013,11625.05880041205,-2369.546447859665,1525.5000267951245,805.7710743654021,-32504.80823622582,0.0
-636.5568860492673,11336.505082141943,14172.27478697876,11626.940413597633,-2368.1650103310094,1526.9767358774807,803.7941896261186,-32479.52554766257,0.0
-635.0087233016357,11337.648340786347,14173.549044009504,11629.417473993843,-2364.8424148957074,1530.0849703169565,809.0103071912159,-32453.33777933917,0.0
-635.6041705122632,11337.588796065284,14173.942039168518,11630.85845624356,-2363.556248920752,1533.1932047564324,811.7970001369528,-32429.805705575174,0.0
-638.2003203505992,11337.743612340048,14173.537135065291,11628.583847898964,-2366.3786686991266,1530.1326060938068,813.1903466098212,-32414.645619592593,0.0
-639.9509351498443,11335.480912939664,14171.333980385969,11625.689974455316,-2368.1769192752217,1526.1431097826023,807.3549639456713,-32431.61586509548,0.0
-640.9751043521236,11332.682311049713,14168.106656504367,11623.844088102369,-2369.7369909670656,1525.428573129849,807.2358745035459,-32462.19803383331,0.0
-639.9628440940568,11336.07636015029,14168.606832161295,11625.785246009014,-2367.7839241162073,1527.715090418659,811.2730065916006,-32487.683174448168,0.0
-638.3670455695751,11341.614019209128,14170.369355904752,11627.035685151332,-2366.8550264676287,1527.417366813345,810.1178390029831,-32511.751150701733,0.0
-641.1061027384617,11334.325745351045,14166.29649698406,11622.093473303124,-2370.260984512418,1523.5469599442663,800.4477763023918,-32525.744160151477,0.0
-642.5709028766055,11328.609452129022,14166.62994742201,11622.96282623064,-2369.332086863839,1524.45203970442,800.8764982940437,-32515.002292471763,0.0
-644.202428233725,11328.311728523708,14166.439404314611,11622.665102625326,-2370.606343894582,1523.916137214855,803.1749245270661,-32490.195961677015,0.0
-640.9512864636986,11332.122590671723,14167.332575130553,11622.903281509578,-2370.0585324608046,1525.190394245598,806.4022484086673,-32462.34094116386,0.0
-639.4507594929172,11331.193693023144,14165.057966785953,11620.878760993442,-2371.0350658862335,1525.5714804603997,804.8540856610357,-32436.3794427805,0.0
-637.6286910283968,11330.19334170929,14164.00997969525,11619.473505576361,-2372.166415586426,1525.083213747685,804.3658189483211,-32428.72199165183,0.0
-639.9509351498443,11330.51488320303,14165.165147283868,11620.962123602932,-2371.1184284957217,1525.1308495245353,804.6039978325721,-32445.942324983178,0.0
-645.1194169380914,11327.537647149891,14160.604021650459,11615.603098707285,-2376.4774533913696,1521.9749793082094,802.5199325953757,-32471.939550199175,0.0
-646.5842170762351,11327.644827647804,14159.29403778708,11614.948106775593,-2377.9422535295134,1521.7368004239584,804.5325441672968,-32498.960944617455,0.0
-646.7509422952108,11330.264795374565,14162.33081856128,11619.509232409,-2372.726135964416,1526.0240203404767,806.2831589665418,-32516.764816215218,0.0
-644.9169648864779,11332.14640856015,14166.15358965351,11621.09312198927,-2372.0949619211506,1524.928397472922,808.1052274310621,-32523.15991925736,0.0
-641.4633710648383,11326.751656831862,14162.199820174943,11616.639176853776,-2376.5012712797948,1520.5578149469159,802.8652919775398,-32511.072340881616,0.0
-643.7022525767978,11323.917328109277,14159.210675177592,11613.25703669741,-2379.7166862171835,1516.973222738938,798.7447972799971,-32487.18299879124,0.0
-642.45181343448,11325.394037191632,14160.74692898101,11613.352308251111,-2380.145408208835,1516.4373202493732,799.2449729369242,-32459.03025467277,0.0
-642.2731792712917,11322.85743207436,14156.781250558231,11610.148802257936,-2383.7419093610256,1513.424357363598,798.9234314431855,-32437.153524154313,0.0
-645.2265974360042,11321.726082374167,14152.708391637538,11607.576470308024,-2386.0046087614105,1509.923127765108,794.850572522493,-32431.88977081237,0.0
-648.2514692659922,11319.927831798072,14148.671259549485,11604.956502581263,-2387.993402444906,1505.9812672307535,790.4323542196366,-32444.71570372928,0.0
-647.8346562185529,11315.34288827624,14146.992098415514,11603.908515490559,-2388.7555748745094,1505.2190948011503,787.109758784335,-32465.04427150011,0.0
-648.2871960986298,11312.687193716842,14145.634478775284,11602.622349515605,-2389.7916530210014,1506.5648054971687,786.9192156769342,-32490.017327513833,0.0
-649.2280026914214,11309.674230831064,14142.276156507343,11597.894498663221,-2395.3174031356248,1501.5035042068344,780.9885614590838,-32510.333986340444,0.0
-651.490702091806,11308.48333640981,14141.811707683055,11597.382414062082,-2396.4130260031798,1499.5980731328264,782.0722753824259,-32519.80159698942,0.0
-648.4658302618182,11314.390172739235,14147.635181402991,11603.193978837806,-2390.01792296104,1506.7553486045695,790.4085363312116,-32504.462876843652,0.0
-651.5502468128687,11307.87598025497,14141.883161348329,11597.275233564169,-2396.1033934536536,1501.5273220952597,782.9535372541548,-32491.67267075937,0.0
-650.7166207179902,11308.006978641308,14142.478608558959,11597.632501890545,-2396.806021162194,1498.359542934721,780.1311174757802,-32458.13708385683,0.0
-647.5607505016642,11313.52081981172,14148.766531103183,11603.646518717884,-2390.2561018452907,1502.7658522933648,781.9770038287255,-32430.544060116346,0.0
-650.7880743832656,11308.185612804496,14142.740605331635,11598.12076860326,-2395.365038912475,1500.9914196056948,782.3699989877398,-32433.783292942164,0.0
-654.0749429859296,11300.468616954764,14133.832715060646,11590.129867036638,-2402.986763208508,1495.1441279973324,777.7850554659076,-32447.990663387736,0.0
-655.3730179050976,11298.003465502765,14129.807491916803,11586.676273214998,-2406.1188155364084,1491.095086965065,772.6642094545108,-32461.066684133115,0.0
-654.7418438618324,11297.13411257525,14128.426054388148,11585.949827618033,-2407.238256292388,1489.7255583806218,772.7237541755736,-32482.633782102046,0.0
-654.5155739217939,11293.12079837562,14124.162652360053,11581.948422362615,-2411.1324810498927,1484.3188977081236,762.9346020328568,-32519.884959598905,0.0
-654.1106698185672,11289.66720455398,14122.50730911451,11578.816370034714,-2412.656825909099,1481.663203148725,757.146855145557,-32539.07026872532,0.0
-652.074240358221,11291.096277859486,14125.151094729697,11582.531960629029,-2408.893599537933,1484.0092651585971,762.8274215349438,-32520.575678363235,0.0
-652.1456940234964,11290.119744434058,14123.805384033678,11581.662607701513,-2410.584669616115,1482.9731870121052,761.8270702210896,-32497.091240376085,0.0
-662.8756527590047,11278.806247432134,14112.694339083368,11570.71828797018,-2420.2666412609187,1474.9346496686335,756.8491315402433,-32475.774230235613,0.0
-666.1387034732436,11273.459131480697,14107.109044247682,11563.572921442648,-2427.471552509512,1469.670896326686,753.0025425595894,-32453.61168505606,0.0
-669.9019298444097,11268.374012301938,14097.34370999339,11552.580965934465,-2436.0221744541236,1466.729387106186,748.5605063683079,-32449.360191972177,0.0
-668.4371297062659,11272.554051720545,14101.654747798333,11557.344543619485,-2426.411656474595,1476.7448091889412,756.8014957633931,-32457.11291465455,0.0
-667.3772336713488,11269.886448216934,14100.463853377078,11552.50951226919,-2434.3906490970044,1474.0057520200546,756.5633168791421,-32483.086321982122,0.0
-669.0087590284684,11267.242662601746,14097.85579459453,11549.484640439203,-2443.7629881922817,1467.8845546948037,752.7524547311258,-32511.405791319572,0.0
-670.4378323339744,11265.146688420338,14096.021817185796,11547.769752472594,-2446.1805038674297,1463.9546031046616,755.0389720199355,-32536.75993354809,0.0
-665.9838871984804,11268.135833417688,14101.023573755068,11552.819144818715,-2441.547924568747,1467.7297384200403,763.7325012950977,-32541.33296812571,0.0
-665.2693505457273,11270.934435307638,14104.691528572534,11558.3091681007,-2436.6176216647514,1468.2894587980302,763.0417825307696,-32528.054495328717,0.0
-662.6374738747537,11275.019203172542,14110.384003906132,11565.275900465045,-2429.853341352022,1464.8835007532407,750.9065683781804,-32501.3784602926,0.0
-663.1733763643184,11274.173668133451,14110.372094961922,11566.038072894647,-2429.1983494203323,1463.3472469498215,744.237559619152,-32473.49962189102,0.0
-669.4493899643327,11266.528125948995,14102.726552777463,11559.46433568932,-2434.7240995349553,1456.9759617961067,737.6519134696114,-32461.23340935209,0.0
-667.9964987704016,11265.492047802501,14100.082767162276,11557.904263997476,-2434.628827981255,1453.8558184124186,732.5072495697893,-32453.00432890122,0.0
-666.1744303058812,11268.171560250326,14101.202207918257,11558.880797422904,-2433.521296169488,1454.0701794082445,728.3986638164594,-32457.994176526277,0.0
-667.6511393882375,11266.897303219583,14098.41551497252,11555.891652425553,-2436.7486200510893,1452.3672003858499,727.8032166058317,-32479.037280949855,0.0
-669.7232956812213,11265.170506308763,14094.568925991867,11550.758897469945,-2440.29748542643,1450.0687741528275,728.4224817048845,-32512.513323131334,0.0
-669.4374810201201,11263.37225573267,14093.366122626398,11551.413889401636,-2438.4873259061214,1453.5938216397426,732.6739747887651,-32539.43944599592,0.0
-668.7229443673672,11261.955091371374,14094.40220077289,11553.414592029343,-2436.2841712268,1456.047064147528,735.1272172965506,-32551.741385367477,0.0
-671.509637313104,11260.490291233229,14091.960867209316,11549.1035542244,-2440.523755366468,1452.5101077164004,730.6256363842064,-32537.807920638796,0.0
-670.7831917161384,11261.157192109133,14092.187137149354,11548.17465657582,-2440.7976610833566,1452.1409304458114,728.2319385974837,-32504.08179062885,0.0
-671.1523689867275,11260.097296074217,14090.245979242709,11546.43595072079,-2442.357732775201,1450.187863594953,730.8280884358197,-32480.54971686485,0.0
-670.6998291066504,11261.93127348295,14092.413407089392,11548.234201296882,-2441.2859277960715,1453.8677273566311,731.1615388737712,-32464.90136416956,0.0
-666.6507880743833,11267.111664215408,14098.963326406298,11555.069935274889,-2434.616919037043,1462.6327102970686,738.8666257792914,-32452.82569473803,0.0
-666.2816108037941,11269.052822122054,14102.05965190156,11558.297259156489,-2430.6750585026884,1467.5749221452772,744.4400116707653,-32462.67439160181,0.0
-663.2805568622314,11275.126383670455,14106.561232813903,11561.715126145491,-2428.650537986555,1467.68210264319,748.9415925831096,-32479.370731387804,0.0
-664.6619943908872,11275.305017833643,14105.656153053751,11559.964511346245,-2431.734954537605,1463.5258811130097,748.000785990318,-32506.320672140813,0.0
-670.4616502223995,11271.398884131928,14101.16648108562,11556.177467086654,-2435.67681507196,1460.310466175621,741.9748602187673,-32533.08006978641,0.0
-673.9390619324644,11268.921823735716,14099.2491410674,11555.832107704491,-2434.414466985429,1461.3346353779007,741.3675040639272,-32546.38236047183,0.0
-671.2714584288531,11269.86263032851,14100.690123317117,11557.475542005823,-2431.4134130438665,1463.8236047183238,744.1661059538766,-32533.10388767484,0.0
-665.5432562626161,11273.685401420737,14105.108341619973,11562.143848137142,-2426.9832857967976,1469.45653533086,746.0715370278848,-32503.569706027713,0.0
-658.731340173037,11280.628315896653,14112.170345538016,11568.94385528251,-2420.492911200957,1476.1731798667388,754.5864321398586,-32466.40189114034,0.0
-656.6949107126908,11283.367373065541,14115.838300355483,11572.30217755045,-2417.741945087858,1477.8166141680708,758.8021983911017,-32442.429186440477,0.0
-659.0528816667759,11282.795743743338,14113.932869281474,11570.53965380699,-2420.897815304184,1474.5535634538319,751.9783733573099,-32435.04564102869,0.0
-663.0542869221929,11280.437772789253,14110.74127223251,11567.53859986543,-2424.113230241573,1472.0765030576213,751.4305619235327,-32445.489785103102,0.0
-661.0893111271221,11280.866494780905,14113.53987412246,11569.313032553098,-2421.7076235106374,1474.8989228359958,756.2536843296158,-32468.867042592337,0.0
-657.6238083612698,11281.45003304732,14114.611679101588,11571.349462013444,-2417.7300361436455,1478.6740581513745,756.0631412222149,-32496.04325328538,0.0
-653.0031380068,11282.224114421137,14116.33847601241,11574.07661023812,-2415.550699352749,1480.5913981695953,758.9927414985025,-32512.513323131334,0.0
-654.2178503164802,11286.928147385093,14118.696446966493,11575.600955097327,-2414.169261824093,1482.3062861362025,761.7675255000267,-32521.31403290441,0.0
-655.7302862314741,11287.523594595721,14115.862118243906,11571.909182391435,-2418.2421207447856,1476.9234433521294,759.4929171554296,-32509.89335540458,0.0
-655.3492000166725,11287.904680810521,14117.0887394978,11573.802704521231,-2416.2295091728643,1479.6505915768037,760.0883643660571,-32475.2859635229,0.0
-653.5509494405773,11287.547412484146,14118.327269695905,11575.446138822563,-2414.2288065451557,1483.8425399396217,760.8981725725105,-32446.79976896648,0.0
-652.657778624636,11290.143562322482,14119.720616168774,11577.20866256602,-2412.359102303785,1483.9735383259597,761.2078051220369,-32434.390649097008,0.0
-653.0984095605004,11292.394352778654,14119.530073061373,11577.149117844958,-2412.7163706301617,1483.4495447806075,763.2085077497454,-32421.731441399057,0.0
-652.8364127878243,11294.633234290613,14122.566853835573,11579.39990830113,-2410.3345817876516,1486.0099677863059,766.6025568503223,-32431.79449925867,0.0
-652.7411412341239,11292.811165826093,14124.115016583204,11580.48362222447,-2409.1079605337586,1488.760933899405,768.1983553748042,-32457.1605504314,0.0
-651.8479704181825,11294.788050565377,14127.116070524768,11582.686776903793,-2408.4767864904934,1490.6306381407755,769.8894254529865,-32488.695434706235,0.0
-651.2882500401927,11300.26616490315,14130.986477393846,11586.12846178122,-2405.23755366468,1495.8348467616602,772.7832988966362,-32503.00998564972,0.0
-652.2766924098344,11301.01642838854,14130.522028569556,11586.247551223345,-2403.213033148546,1497.061468015553,772.7237541755736,-32510.595983113115,0.0
-652.6935054572737,11300.909247890628,14132.153553926677,11587.926712357315,-2402.212681834692,1496.7041996891767,774.5577315843065,-32500.318564257683,0.0
-649.2280026914214,11304.958288922895,14136.678952727445,11593.0356494245,-2397.02038215802,1499.109806420112,778.2375953459846,-32470.046028069384,0.0
-644.3691534527006,11305.148832030296,14136.226412847369,11591.940026556946,-2398.925813232028,1499.8243430728648,777.5706944700817,-32447.847756057185,0.0
-641.6420052280264,11306.601723224227,14139.644279836371,11596.513061134565,-2395.114951084012,1502.8373059586404,779.8453028146789,-32427.94791027801,0.0
-641.2251921805872,11305.02974258817,14139.50137250582,11597.04896362413,-2393.8406940532686,1503.9924735472575,779.8453028146789,-32413.037912123902,0.0
-643.3092574177836,11303.11240256995,14135.547603027253,11595.536527709135,-2392.554528078313,1504.6117386463102,779.6666686514907,-32420.135642874582,0.0
-642.5709028766055,11306.458815893677,14135.892962409416,11595.345984601736,-2392.387802859337,1505.7907241233527,780.7384736306203,-32445.704146098924,0.0
-640.3320213646459,11310.364949595394,14138.89401635098,11594.476631674219,-2395.722307238852,1504.7546459768607,780.0120280336547,-32472.08245752973,0.0
-639.6293936561054,11308.983512066738,14139.584735115308,11594.893444721658,-2397.353832595971,1497.8950941104317,775.3199040139096,-32494.102095378737,0.0
-639.772300986656,11308.173703860284,14142.478608558959,11597.703955555819,-2395.186404749287,1499.6218910212515,781.7864607213247,-32498.18686324364,0.0
-638.8076765054394,11308.804877903549,14143.943408697101,11599.573659797192,-2391.0897279401693,1505.576363127527,779.3332182135392,-32483.45549925271,0.0
-637.7477804705223,11310.853216308107,14146.82537319654,11602.65807634824,-2388.529304934471,1507.0173453772454,780.1072995873551,-32461.59067767847,0.0
-636.1638908902531,11313.497001923293,14149.576339309639,11604.873139971776,-2387.2788657921533,1507.2555242614965,785.3234171524523,-32434.271559654877,0.0
-636.5092502724171,11313.66372714227,14148.683168493697,11604.110967542172,-2386.9692332426266,1506.9458917119703,785.8474106978045,-32409.917768740215,0.0
-635.4017184606498,11315.771610267891,14149.12379942956,11604.09905859796,-2386.064153482473,1509.0180480049542,784.3468837270232,-32396.317754449476,0.0
-631.9600335832226,11320.058830184409,14152.255851757462,11608.017101243888,-2383.5632751978374,1515.2702437165433,793.6596781012379,-32403.748935638112,0.0
-633.2700174466032,11319.975467574921,14152.24394281325,11608.374369570267,-2382.5748328281957,1517.8068488338167,793.445317105412,-32426.26874914405,0.0
-637.3309674230832,11314.306810129749,14147.15882363449,11603.098707284105,-2386.1832429245983,1516.0681429787842,791.563703919829,-32460.28069381509,0.0
-638.2836829600872,11313.830452361246,14145.348664114183,11600.490648501556,-2391.661357262372,1511.828558839116,789.1580971888937,-32489.374244526352,0.0
-637.2833316462329,11316.390875366944,14147.408911462953,11603.813243936858,-2386.4928754741245,1514.4961623427275,789.813089120584,-32495.53116868424,0.0
-635.5446257912005,11317.831857616662,14148.599805884209,11605.849673397204,-2384.206358185315,1516.3896844725232,791.6232486408917,-32479.51363871836,0.0
-639.295943218154,11317.45077140186,14147.15882363449,11604.6111431991,-2387.1002316289646,1515.2106989954805,793.0404130021852,-32460.054423875048,0.0
-635.9614388386398,11318.79648209788,14148.814166880034,11606.516574273108,-2385.980790872985,1512.4478239381688,793.8383122644261,-32429.91288607308,0.0
-631.6742189221214,11318.856026818941,14150.195604408691,11608.576821621878,-2385.016166391769,1505.73117940229,787.7647507160253,-32403.451212032793,0.0
-626.9106412371011,11321.285451438302,14153.327656736592,11611.85178128033,-2380.4550407583615,1508.327329240626,787.9552938234261,-32397.06801793487,0.0
-636.3782518860789,11324.226960658802,14155.828535021228,11614.412204286029,-2374.1194824372847,1517.1042211252761,794.981570908831,-32405.142282110977,0.0
-636.854609654581,11324.703318427304,14155.935715519141,11613.792939186977,-2374.572022317361,1518.938198534009,793.707313878088,-32429.91288607308,0.0
-633.6987394382551,11324.608046873604,14156.54307167398,11611.947052834032,-2378.3114308001022,1516.0800519229967,791.3255250355779,-32452.36124591374,0.0
-631.8885799179474,11322.047623867906,14157.078974163545,11611.827963391905,-2381.1695774111145,1513.8411704110372,789.6582728458209,-32473.547257667873,0.0
-632.6983881244008,11322.44061902692,14156.292983845517,11612.256685383556,-2380.204952929898,1515.5560583776444,786.8239441232338,-32488.58825420832,0.0
-635.2707200743117,11320.297009068661,14154.185100719895,11610.517979528526,-2381.1457595226893,1515.0916095533548,787.6218433854746,-32480.644988418553,0.0
-632.5792986822753,11323.238518289161,14155.709445579103,11610.839521022262,-2381.3363026300904,1515.544149433432,789.3843671289321,-32462.412394829138,0.0
-630.4833245008663,11328.180730137368,14155.637991913825,11609.422356660969,-2384.3016297390154,1513.662536247849,786.633401015833,-32432.65194324197,0.0
-630.6500497198421,11330.407702705117,14155.399813029575,11610.529888472738,-2383.2417337040984,1516.0800519229967,791.218344537665,-32407.404981511365,0.0
-630.1617830071275,11329.550258721812,14155.435539862214,11612.542500044658,-2379.0855121739182,1518.3427513233814,795.3150213467825,-32394.138417658585,0.0
-629.0304333069352,11327.06128938139,14156.233439124455,11609.053179390381,-2382.6343775492583,1514.9248843343794,794.1122179813149,-32404.2133844624,0.0
-629.7092431270505,11316.009789152144,14149.4453409233,11606.302213277282,-2383.1821889830358,1512.8050922645452,788.8722825277924,-32427.674004561126,0.0
-630.6024139429918,11317.379317736586,14151.231682555182,11610.398890086399,-2379.121239006556,1516.2705950303975,788.86037358358,-32451.503801930437,0.0
-630.6857765524798,11319.939740742284,14151.100684168845,11611.506421898166,-2376.6679964987707,1517.2709463442518,788.9913719699181,-32474.619062647,0.0
-629.6139715733501,11322.428710082708,14153.613471397692,11611.0657909623,-2377.7517104221124,1515.6632388755575,788.9080093604301,-32487.56408500604,0.0
-629.8521504576012,11317.939038114575,14150.124150743415,11606.730935268932,-2383.2893694809486,1510.9472969673873,785.6449586461912,-32476.024318064083,0.0
-630.6262318314169,11314.926075228801,14148.361626999957,11604.646870031738,-2385.159073722319,1507.719973085786,779.7857580936162,-32454.147587545627,0.0
-628.6017113152834,11317.91522022615,14152.005763928999,11607.564561363812,-2382.7296491029583,1510.1255798167213,781.5244639486486,-32425.32794255125,0.0
-630.1260561744898,11319.16565936847,14153.946921835644,11611.56596661923,-2379.7047772729707,1513.1861784793468,785.5496870924908,-32401.72441512198,0.0
-628.9351617532348,11320.832911558226,14157.388606713072,11616.19854591791,-2375.5485557427905,1519.2954668603854,792.4687836799828,-32391.88762720241,0.0
-627.8514478298927,11324.584228985179,14161.509101410613,11621.271756152457,-2367.641016785657,1525.6191162372497,794.8386635782804,-32404.84455850567,0.0
-626.6367355202124,11327.311377209853,14162.74763160872,11618.080159103494,-2372.595137578078,1521.617710981833,794.5766668056043,-32422.88660898768,0.0
-626.0293793653723,11324.893861534705,14157.94832709106,11612.078051220367,-2377.0371737693595,1521.2842605438816,799.1616103274364,-32446.46631852853,0.0
-628.5421665942206,11321.785627095229,14152.99420629864,11605.516222959253,-2381.872205119655,1518.938198534009,797.1370898113028,-32469.93884757147,0.0
-626.6129176317874,11319.344293531656,14151.588950881558,11605.230408298152,-2383.944361412639,1518.9620164224339,796.1486474416611,-32477.453391369585,0.0
-626.541463966512,11322.976521516484,14155.2330878106,11607.445471921686,-2384.337356571653,1520.0695482342012,798.7447972799971,-32467.009247295184,0.0
-627.4584526708784,11322.940794683847,14155.79280818859,11609.124633055657,-2380.657492809975,1518.8905627571587,796.839366205989,-32447.133219404433,0.0
-627.815720997255,11326.954108883478,14162.461816947618,11617.78243549818,-2372.2855050285516,1520.843629608017,794.6957562477298,-32421.31462835162,0.0
-626.8510965160383,11329.478805056537,14166.332223816697,11621.176484598758,-2371.4042431568228,1520.1410018994766,795.4102929004829,-32396.460661780027,0.0
-627.1011843445019,11330.324340095627,14166.39176853776,11621.259847208245,-2371.2256089936345,1521.9630703639968,793.0165951137601,-32384.218267129527,0.0
-631.6623099779089,11331.229419855783,14167.320666186339,11622.129200135761,-2369.4154494733266,1523.5826867769038,790.7658046575881,-32393.51915255953,0.0
-631.0906806557065,11331.610506070583,14166.832399473626,11622.2601985221,-2367.128932184517,1529.596703604242,796.5535515448878,-32414.68134642523,0.0
-630.0069667323643,11326.763565776075,14160.687384259949,11615.543553986221,-2374.1194824372847,1526.1431097826023,798.0898053483068,-32441.988555504613,0.0
-630.2451456166153,11326.025211234897,14161.139924140025,11615.019560440867,-2374.84592803425,1522.4275191882864,795.0411156298939,-32462.460030605987,0.0
-628.744618645834,11329.466896112324,14163.474077205685,11618.75896892361,-2370.8564317230457,1525.3452105203614,798.006442738819,-32465.16336094223,0.0
-625.7912004811213,11335.016464115373,14169.833453415187,11625.701883399528,-2364.7114165093694,1530.680417527584,802.1745732132117,-32453.32587039496,0.0
-626.9344591255262,11334.182838020495,14169.273733037197,11624.451444257209,-2365.6403141579485,1531.3235005150616,802.7700204238394,-32434.15247021275,0.0
-623.6594994670747,11334.71874051006,14168.77355738027,11625.427977682639,-2364.34223923878,1532.883572206906,807.2239655593334,-32406.523719639634,0.0
-625.3029337684068,11332.265498002274,14166.570402700949,11621.581388701985,-2368.462733936323,1528.2986286850737,803.2940139691915,-32386.57623808361,0.0
-625.826927313759,11332.003501229598,14166.29649698406,11621.521843980921,-2367.4147468456185,1529.596703604242,799.8761469801894,-32372.547501801226,0.0
-625.5649305410828,11331.884411787472,14166.046409155597,11621.640933423047,-2366.866935411841,1528.7392596209384,799.4950607653878,-32384.480263902205,0.0
-625.0766638283683,11332.8609452129,14166.02259126717,11622.605557904264,-2366.1643077033004,1529.4061604968413,796.6607320428008,-32409.620045134896,0.0
-624.8265759999047,11333.063397264516,14166.8085815852,11623.498728720206,-2364.782870174645,1530.0135166516814,798.5661631168088,-32435.748268737236,0.0
-626.9582770139514,11330.574427924092,14164.784061069066,11620.545310555492,-2369.201088477501,1522.7133338493875,790.158448502748,-32458.244264354744,0.0
-627.4941795035162,11332.301224834913,14163.640802424661,11619.354416134236,-2371.7615114831997,1522.0821598061225,791.111164039752,-32466.270892754,0.0
-628.5183487057955,11335.98108859659,14164.307703300563,11619.92604545644,-2369.4511763059645,1525.2737568550858,797.5062670818919,-32456.55319427656,0.0
-628.1134446025687,11337.636431842135,14165.796321327132,11621.748113920961,-2367.5100183993186,1528.0485408566103,800.3286868602663,-32428.638629042343,0.0
-626.1008330306477,11333.575481865655,14165.260418837568,11622.843736788514,-2365.676040990586,1530.4541475875455,802.460387874313,-32402.641403826343,0.0
-624.0524946260889,11327.549556094104,14162.402272226554,11619.6045039627,-2367.9506493351832,1528.9178937841264,801.0670414014445,-32381.66975306804,0.0
-623.8738604629007,11326.311025895999,14161.151833084237,11617.722890777117,-2370.296711345056,1525.773932512013,799.4950607653878,-32369.42735841754,0.0
-624.0524946260889,11332.563221607588,14165.68914082922,11622.343561131587,-2366.2714882012133,1528.6320791230253,800.9122251266814,-32381.217213187963,0.0
-622.8616002048338,11337.636431842135,14167.642207680077,11624.40380848036,-2365.3664084410593,1532.7883006532054,803.8299164587563,-32403.344031534885,0.0
-623.1712327543601,11334.421016904746,14158.115052310037,11616.865446793814,-2370.713524392495,1529.7991556558552,802.0316658826611,-32427.28100940211,0.0
-624.8503938883298,11337.743612340048,14161.842551848566,11617.794344442395,-2370.4038918429683,1527.4292757575577,800.947951959319,-32449.431645637454,0.0
-625.112390661006,11332.646584217076,14166.034500211385,11620.438130057579,-2368.510369713173,1527.715090418659,797.530084970317,-32465.54444715704,0.0
-624.4573987293156,11323.953054941914,14165.820139215557,11621.926748084148,-2368.903364872187,1527.548365199683,796.3987352701247,-32460.256875926665,0.0
-624.7074865577791,11324.786681036792,14165.427144056544,11622.284016410524,-2368.40318921526,1526.5003781089786,794.4933041961165,-32437.27261359644,0.0
-621.1824390708641,11330.264795374565,14168.916464710821,11624.463353201421,-2366.7716638581405,1527.8818156376344,797.0180003691772,-32407.678887228252,0.0
-619.0983738336678,11332.313133779126,14170.166903853138,11624.951619914136,-2366.2476703127886,1529.6562483253047,799.3640623790498,-32381.979385617564,0.0
-619.9677267611839,11334.62346895636,14170.488445346879,11625.630429734252,-2365.5569515484603,1531.6569509530132,797.5896296913796,-32366.986024853966,0.0
-620.9442601866132,11333.373029814042,14167.880386564328,11622.522195294776,-2367.152750072942,1528.584443346175,798.2922573999202,-32376.45363550294,0.0
-616.8475833774957,11335.69527393549,14168.11856544858,11624.499080034058,-2364.0921514103165,1534.765185392489,807.6407786067725,-32399.473624665803,0.0
-613.5726237190441,11341.101934607988,14174.370761160168,11630.52500580561,-2360.23365348545,1538.1235076604285,811.8803627464407,-32416.074692898103,0.0
-612.1435504135382,11344.353076378013,14181.921031790926,11639.39716924396,-2351.671122596626,1544.042252934066,814.2264247563131,-32426.06629709243,0.0
-616.6689492143074,11335.361823497538,14174.716120542333,11632.740069429145,-2354.981809087715,1543.6611667192644,810.094021114558,-32442.8340905437,0.0
-625.9221988674594,11323.78632972294,14159.913302886132,11615.495918209372,-2372.4641391917403,1528.3105376292865,799.0067940526732,-32462.055126502757,0.0
-631.4836758147206,11316.724325804895,14152.386850143801,11606.29030433307,-2384.039632966339,1515.1630632186304,787.478936054924,-32440.630935864378,0.0
-627.6609047224919,11317.855675505087,14155.864261853865,11610.101166481085,-2380.0858634877723,1515.8656909271708,787.8004775486629,-32402.820037989535,0.0
-622.5876944879452,11325.739396573796,14164.450610631113,11618.103976991919,-2372.7380449086286,1521.7010735913207,792.5878731221084,-32384.670807009603,0.0
-627.363181117178,11328.359364300559,14167.070578357876,11620.330949559668,-2369.963260907104,1524.213860820169,795.2554766257197,-32374.036119827797,0.0
-626.7200981297003,11330.872151529406,14169.595274530937,11622.939008342215,-2367.8077420046325,1528.4653539040496,799.8285112033393,-32377.322988430464,0.0
-627.0892754002894,11327.418557707766,14165.820139215557,11620.664399997617,-2367.6529257298694,1531.0495947981733,801.6863065004972,-32401.974502950437,0.0
-628.4945308173703,11325.632216075883,14161.973550234905,11617.949160717155,-2371.2375179378473,1526.6551943837417,799.518878653813,-32429.638980356194,0.0
-629.4353374101619,11329.5383497776,14164.784061069066,11620.307131671241,-2369.629810469153,1528.8464401188512,797.4109955281914,-32452.611333742207,0.0
-627.9943551604432,11329.788437606063,14165.12942045123,11621.736204976747,-2367.938740390971,1531.4664078456124,799.8046933149142,-32459.98297020977,0.0
-624.6360328925039,11326.823110497138,14162.688086887656,11619.890318623802,-2369.5345389154527,1527.4530936459828,798.2803484557076,-32445.72796398735,0.0
-623.7071352439249,11326.668294222376,14164.117160193164,11622.927099398003,-2364.913868560983,1527.0005537659058,795.8509238363472,-32425.88766292924,0.0
-624.7551223346294,11327.704372368868,14164.700698459577,11623.975086488706,-2363.63961153024,1527.6436367533836,797.1132719228776,-32400.033345043794,0.0
-625.374387433682,11327.835370755205,14164.962695232254,11622.534104238988,-2368.7128217647864,1527.6555456975962,797.6253565240174,-32376.66799649877,0.0
-625.1838443262812,11325.977575458046,14163.057264158246,11620.58103738813,-2368.7604575416367,1528.5963522903878,793.2905008306489,-32363.425250534416,0.0
-625.112390661006,11323.238518289161,14158.639045855389,11614.185934345991,-2373.940848274096,1524.2019518759562,792.3616031820699,-32370.225257679784,0.0
-624.7789402230544,11320.892456279287,14154.923455261074,11607.767013415425,-2379.121239006556,1520.9984458827803,789.920269618497,-32395.69848935043,0.0
-627.0297306792266,11316.545691641706,14150.267058073967,11604.265783816936,-2382.646286493471,1517.8663935548793,789.3962760731448,-32430.293972287887,0.0
-624.6360328925039,11322.44061902692,14158.257959640589,11614.709927891343,-2374.3695702657483,1523.0229663989137,796.5654604891004,-32446.918858408608,0.0
-624.5645792272286,11323.14324673546,14160.127663881958,11616.972627291727,-2372.356958693827,1523.9042282706425,797.2680881976407,-32451.444257209376,0.0
-625.9221988674594,11322.940794683847,14160.699293204161,11616.019911754724,-2373.6669425572077,1524.797399086584,797.2919060860659,-32435.009914196053,0.0
-625.1600264378562,11323.51242400605,14159.675124001882,11615.638825539922,-2376.2630923955435,1519.890914071013,795.4698376215456,-32406.011635038492,0.0
-623.7785889092003,11324.31032326829,14158.710499520665,11615.424464544096,-2374.1671182141345,1517.9616651085796,790.6705331038877,-32382.08656611548,0.0
-620.2892682549228,11324.21505171459,14157.579149820473,11613.995391238588,-2371.3923342126104,1518.7119285939705,783.5608934089947,-32370.59443495037,0.0
-618.9316486146921,11325.62030713167,14159.984756551406,11614.197843290203,-2375.2865589701146,1513.793534634187,776.0820764435128,-32361.26973163194,0.0
-619.6104584348074,11324.405594821992,14159.032041014403,11613.792939186977,-2375.596191519641,1516.1515055882721,778.2018685133469,-32366.61684758338,0.0
-620.7418081349997,11324.524684264117,14159.56794350397,11614.114480680715,-2371.058883774659,1527.715090418659,792.6355088989585,-32395.412674689323,0.0
-621.9684293888924,11325.632216075883,14159.234493066017,11612.26859432777,-2369.9394430186794,1532.7287559321428,798.7805241126348,-32426.74510691255,0.0
-620.9442601866132,11326.013302290685,14160.675475315737,11614.721836835555,-2369.05818114695,1532.8478453742684,800.733590963493,-32447.812029224548,0.0
-622.5638765995201,11322.785978409083,14158.436593803775,11608.553003733454,-2381.0862148016267,1525.5476625719746,796.363008437487,-32456.958098379786,0.0
-623.4332295270362,11322.738342632234,14157.626785597322,11609.017452557744,-2381.24103107639,1525.4642999624868,796.8989109270518,-32445.966142871603,0.0
-621.95652044468,11324.191233826165,14160.425387487272,11613.935846517526,-2377.846981975813,1526.0478382289018,800.1976884739283,-32419.43301516604,0.0
-621.0633496287387,11326.001393346472,14163.700347145723,11617.329895618102,-2375.2508321374767,1521.1532621575434,802.4842057627382,-32395.26976735877,0.0
-621.0157138518884,11329.431169279687,14167.404028795827,11621.79574969781,-2369.9394430186794,1519.2954668603854,796.3272816048493,-32373.16676690028,0.0
-622.325697715269,11331.324691409482,14169.166552539284,11624.749167862523,-2366.688301248653,1515.7942372618954,780.7384736306203,-32365.128229556813,0.0
-622.7901465395585,11330.312431151415,14168.904555766607,11625.332706128936,-2365.3187726642095,1518.4499318212945,780.5955663000697,-32372.30932291697,0.0
-619.5866405463823,11332.134499615937,14169.345186702472,11626.809415211294,-2363.5324310323267,1524.1424071548936,788.1220190424018,-32389.06520742404,0.0
-623.4927742480991,11329.9194359924,14166.641856366223,11625.2017077426,-2365.4854978831854,1524.5592202023329,789.6582728458209,-32418.206393912144,0.0
-625.9460167558844,11328.061640695243,14164.66497162694,11624.058449098195,-2366.390577643339,1524.5234933696952,789.9083606742844,-32442.202916500435,0.0
-625.6840199832084,11327.692463424655,14165.022239953318,11623.081915672765,-2367.4147468456185,1523.0110574547014,791.5517949756164,-32449.443554581667,0.0
-624.1477661797893,11328.633270017446,14165.141329395443,11621.831476530448,-2368.427007103685,1522.248885025098,791.5160681429788,-32439.440041443126,0.0
-621.5992521183035,11328.609452129022,14165.117511507016,11622.105382247337,-2367.819650948845,1524.4401307602072,793.099957723248,-32420.873997415758,0.0
-622.3971513805443,11329.597894498664,14164.772152124853,11622.21256274525,-2367.2599305708554,1527.6555456975962,794.3146700329282,-32392.28062236142,0.0
-620.7418081349997,11333.18248670664,14167.261121465275,11624.213265372957,-2364.6637807325187,1528.7273506767256,792.278240572582,-32366.40248658755,0.0
-619.1341006663054,11333.813660749905,14171.119619390143,11630.215373256084,-2356.1965213973954,1536.3609839169708,799.304517657987,-32351.671122596625,0.0
-620.444084529686,11334.123293299432,14172.012790206085,11630.405916363485,-2356.2322482300333,1536.5277091359467,803.8299164587563,-32363.937335135553,0.0
-619.7890925979957,11332.027319118024,14170.857622617466,11627.9526738557,-2361.2340047993043,1532.2285802752158,799.1377924390114,-32386.540511250976,0.0
-616.4545882184815,11332.11068172751,14170.345538016327,11627.333408756647,-2361.0196438034786,1534.0625576839484,799.7213307054262,-32408.83405481687,0.0
-618.1099314640261,11333.74220708463,14170.190721741563,11629.143568276955,-2356.8276954406606,1541.1364705462036,803.2940139691915,-32430.079611292058,0.0
-618.3719282367022,11333.23012248349,14169.488094033024,11628.107490130462,-2358.328222411442,1541.124561601991,803.972823789307,-32444.78715739456,0.0
-618.8601949494168,11330.75306208728,14168.463924830745,11625.72570128795,-2363.282343203863,1533.8005609112724,803.043926140728,-32438.16578441238,0.0
-616.2878629995057,11329.740801829214,14166.02259126717,11622.700829457965,-2364.151696131379,1532.5143949363169,803.8418254029689,-32412.41864702485,0.0
-612.9057228431413,11332.194044337,14167.570754014803,11625.785246009014,-2360.0788372106867,1536.5634359685841,804.1990937293453,-32384.468354957993,0.0
-612.2626398556636,11332.587039496015,14168.356744332832,11628.119399074676,-2357.994771973491,1539.9098492923108,805.9139816959528,-32359.98356565699,0.0
-615.5733263467527,11332.801400491839,14166.987215748386,11623.93935965607,-2363.7706099165775,1534.3602812892623,798.9115224989728,-32349.98005251844,0.0
-615.3589653509268,11330.717335254642,14163.676529257298,11619.818864958526,-2369.117725868013,1527.2030058175192,791.9566990788431,-32361.198277966665,0.0
-616.8237654890705,11331.527143461097,14163.616984536236,11619.949863344866,-2369.332086863839,1525.1546674129606,793.3024097748613,-32389.851197742064,0.0
-617.8479346913499,11331.36041824212,14165.724867661856,11623.641636050756,-2365.056775891533,1528.7749864535758,793.8859480412764,-32412.216194973233,0.0
-618.324292459852,11332.682311049713,14169.452367200385,11629.000660946404,-2358.1734061366788,1534.8366390577644,798.1255321809444,-32436.84389160479,0.0
-623.147414865935,11332.408405332824,14167.951840229605,11628.167034851524,-2361.162551134029,1531.0138679655356,796.6845499312259,-32447.20467306971,0.0
-621.8850667794047,11333.253940371915,14169.89299813625,11630.417825307697,-2358.887942789432,1531.9904013909647,800.2215063623535,-32435.27191096873,0.0
-617.4906663649733,11334.587742123722,14170.940985226955,11627.643041306172,-2363.1632537617375,1531.001959021323,797.3038150302784,-32415.181522082155,0.0
-617.2405785365098,11329.68125710815,14164.772152124853,11617.818162330817,-2370.499163396669,1529.251344222078,799.9714185338898,-32387.195503182662,0.0
-616.335498776356,11326.906473106626,14160.735020036798,11614.864744166107,-2371.594786264224,1531.7403135625011,805.0565377126491,-32362.85362121221,0.0
-617.5144842533985,11332.229771169636,14166.713310031499,11621.712387088322,-2367.295657403493,1534.0030129628856,806.4498841855176,-32355.088989585627,0.0
-618.1099314640261,11331.789140233772,14166.832399473626,11621.200302487183,-2369.689355190216,1531.2996826266367,806.0687979707159,-32363.556248920755,0.0
-620.920442298188,11327.894915476267,14164.47442851954,11618.34215587617,-2373.571671003507,1526.0835650615393,798.8519777779102,-32387.767132504865,0.0
-623.1235969775099,11328.395091133194,14164.593517961664,11619.23532669211,-2370.0228056281667,1527.0124627101184,795.4579286773331,-32414.94334319791,0.0
-623.9691320166011,11328.811904180635,14164.593517961664,11619.473505576361,-2368.9152738164,1527.2387326501569,797.0537272018148,-32438.85650317671,0.0
-620.7775349676374,11327.752008145717,14164.510155352178,11619.6045039627,-2370.0942592934425,1524.1185892664687,791.80188280408,-32446.97840312967,0.0
-617.7288452492245,11327.216105656153,14163.68843820151,11618.675606314122,-2370.368165010331,1525.3452105203614,792.8260520063593,-32439.035137339903,0.0
-611.9887341387749,11331.610506070583,14167.951840229605,11624.36808164772,-2364.127878242954,1533.860105632335,802.5794773164386,-32411.03720949619,0.0
-619.6461852674452,11332.122590671723,14169.476185088812,11625.463704515276,-2363.234707427013,1532.1571266099404,801.3052202856956,-32383.920543524215,0.0
-622.0279741099553,11330.836424696769,14168.48774271917,11625.05880041205,-2364.473237625118,1530.0492434843188,799.9595095896774,-32361.82945200993,0.0
-619.1579185547305,11330.955514138894,14169.726272917274,11627.02377620712,-2362.3415366110717,1531.5735883435254,800.947951959319,-32345.216474833425,0.0
-617.9670241334754,11330.872151529406,14168.416289053894,11626.249694833305,-2362.091448782608,1531.1686842402987,796.4582799911874,-32352.695291798904,0.0
-616.8475833774957,11329.288261949136,14164.236249635289,11621.855294418874,-2366.1881255917256,1528.7630775093633,793.0642308906104,-32378.10897874849,0.0
-615.5733263467527,11330.038525434527,14164.367248021626,11622.891372565366,-2365.997582484325,1530.5017833643958,800.257233194991,-32402.796220101107,0.0
-615.8115052310037,11331.312782465271,14165.200874116505,11624.153720651895,-2365.390226329485,1529.9539719306183,798.8996135547603,-32426.57838169357,0.0
-616.5498597721819,11330.70542631043,14163.557439815173,11620.783489439744,-2368.2007371636464,1527.3578220922823,795.5532002310335,-32434.46210276228,0.0
-616.0615930594673,11332.694219993926,14167.165849911577,11624.177538540322,-2363.877790414491,1533.729107245997,801.8768496078981,-32420.54054697781,0.0
-616.5498597721819,11331.63432395901,14166.403677481972,11623.844088102369,-2363.365705813351,1534.1459202934363,800.8050446287684,-32399.771348271122,0.0
-617.2048517038721,11329.871800215551,14164.986513120679,11621.79574969781,-2365.830857265349,1533.776743022847,802.674748870139,-32377.989889306362,0.0
-611.429013760785,11332.884763101327,14168.106656504367,11622.68892051375,-2364.6995075651566,1536.2657123632703,803.7465538492685,-32353.255012176895,0.0
-608.6542297592607,11334.980737282736,14169.869180247826,11623.89172387922,-2363.2942521480754,1538.6355922615678,806.0687979707159,-32337.523296872117,0.0
-610.2262103953174,11335.69527393549,14171.131528334356,11625.535158180552,-2363.282343203863,1540.648203833489,808.1647721521248,-32341.84624362127,0.0
-612.3460024651514,11334.730649454274,14169.035554152946,11623.046188840128,-2368.8914559279747,1534.181647126074,807.7955948815357,-32367.057478519244,0.0
-612.0125520272,11335.65954710285,14171.048165724866,11627.10713881661,-2366.11667192645,1535.4201773241791,807.497871276222,-32390.56573439482,0.0
-611.7505552545239,11335.207007222774,14171.584068214432,11629.941467539194,-2361.329276353005,1537.7543303898392,806.8309704003192,-32407.85752139144,0.0
-613.2272643368802,11334.373381127896,14168.952191543458,11627.523951864046,-2360.293198206513,1537.8853287761774,808.0218648215742,-32415.121977361094,0.0
-612.2983666883011,11337.291072459971,14172.155697536635,11630.489278972973,-2358.5544923514803,1538.4093223215295,811.7255464716775,-32402.474678607367,0.0
-612.703270791528,11336.945713077806,14170.940985226955,11629.691379710732,-2360.8052828076525,1534.9319106114647,808.8435819722403,-32379.62141466348,0.0
-614.5253392560483,11335.302278776475,14170.857622617466,11630.334462698209,-2360.0788372106867,1531.6688598972257,803.4369212997422,-32365.009140114686,0.0
-612.5246366283397,11336.957622022019,14173.942039168518,11630.644095247735,-2359.388118446359,1532.6573022668676,801.1027682340822,-32342.798959158274,0.0
-612.0601878040502,11338.97023359394,14173.477590344228,11627.91694702306,-2362.1509935036706,1531.8832208930517,795.6722896731591,-32331.271101160528,0.0
-613.4416253327062,11341.768835483888,14176.276192234176,11629.286475607503,-2361.138733245604,1532.1809444983655,795.5532002310335,-32340.250445096786,0.0
-612.6794529031029,11340.577941062635,14178.002989144998,11631.394358733127,-2358.7093086262435,1531.1567752960862,790.2060842795981,-32360.84100964029,0.0
-612.3102756325138,11338.934506761303,14176.609642672129,11631.811171780566,-2359.2690290042337,1530.311240256995,792.3139674052196,-32390.970638498045,0.0
-616.0258662268296,11343.01927462621,14177.812446037595,11632.871067815482,-2358.5902191841183,1534.0863755723735,797.4943581376792,-32413.18081945445,0.0
-616.7284939353701,11342.602461578768,14174.454123769658,11633.764238631424,-2355.303350581454,1539.9932119017988,802.9724724754526,-32423.184332592995,0.0
-615.2279669645887,11345.12715775183,14178.455529025074,11636.527113688737,-2356.1727035089702,1538.3855044331044,804.4372726135964,-32413.609541446098,0.0
-612.1078235809003,11349.462013445198,14185.839074436855,11641.77895808647,-2350.24204929112,1541.898642975807,806.1640695244164,-32386.480966529914,0.0
-609.9403957342162,11347.842397032291,14186.505975312757,11641.147784043205,-2350.4921371195837,1541.4222852073049,807.9146843236613,-32358.221041913526,0.0
-609.0710428067,11345.424881357143,14188.185136446727,11642.99367039615,-2349.598966303642,1541.1721973788412,807.5574159972848,-32337.511387927905,0.0
-608.7971370898113,11346.973044104776,14189.161669872157,11645.435003959725,-2347.669717341209,1545.9238661196491,805.6877117559142,-32325.376173775316,0.0
-609.202041193038,11344.769889425454,14188.161318558303,11648.293150570735,-2341.941515174972,1548.948737949637,803.7703717376936,-32332.890717573435,0.0
-612.3102756325138,11344.71034470439,14184.41000113135,11642.99367039615,-2348.5271613245127,1543.0538105644243,810.7013772693982,-32355.10089852984,0.0
