EEG 1,EEG 2,EEG 3,EEG 4,EEG 5,EEG 6,EEG 7,EEG 8,Trigger
1531.7760403951388,4677.1306589814285,7926.402724766435,-351.29003638182456,-8804.484908390446,-4747.667335552367,-5847.910873461513,-19625.02307357941,0.0
1532.538212824742,4675.403862070609,7924.83074413038,-352.0402998672153,-8804.54445311151,-4748.441416926182,-5847.041520533997,-19635.181402992715,0.0
1534.0387397955235,4676.3446686634,7926.212181659035,-349.89668990895615,-8801.912576440536,-4745.976265474184,-5840.33678494233,-19642.89839884245,0.0
1532.4310323268292,4677.690379359418,7927.141079307613,-349.9205077973812,-8802.936745642815,-4745.642815036233,-5838.085994486159,-19646.31626583145,0.0
1529.7157930463673,4678.381098123746,7928.034250123555,-349.15833536777797,-8802.222208990062,-4745.428454040407,-5839.657975122215,-19648.5432383992,0.0
1530.94241430026,4679.119452664923,7928.57015261312,-349.25360692147837,-8803.05583508494,-4744.36855800549,-5839.050618967375,-19642.505403683434,0.0
1533.1098421469444,4678.381098123746,7927.367349247653,-351.1590379954865,-8806.473702073943,-4748.739140531497,-5845.37426834424,-19632.71625154072,0.0
1533.729107245997,4677.976194020519,7926.509905264348,-351.8378478156019,-8806.354612631818,-4749.548948737949,-5848.244323899465,-19622.41501479686,0.0
1533.7171983017845,4676.797208543477,7925.759641778957,-352.5166576357173,-8806.295067910754,-4748.28660065142,-5845.695809837978,-19616.793993128536,0.0
1533.0026616490316,4676.2613060539115,7925.712006002108,-352.8262901852436,-8807.009604563507,-4746.738437903788,-5843.9332860945215,-19620.00940806593,0.0
1531.8832208930517,4675.796857229622,7925.6167344484065,-352.3737503051667,-8806.295067910754,-4747.333885114415,-5844.183373922985,-19629.22693088644,0.0
1533.2884763101326,4676.868662208752,7927.796071239303,-349.8847809647436,-8803.770371737693,-4745.869084976272,-5842.932934780667,-19636.82483729405,0.0
1533.9672861302479,4676.928206929815,7927.248259805528,-351.4686705450128,-8805.985435361228,-4747.167159895439,-5844.5763690819995,-19646.471082106218,0.0
1532.2523981636407,4676.094580834936,7925.557189727345,-352.07602669985295,-8806.283158966542,-4748.417599037757,-5845.898261889592,-19655.188429269805,0.0
1530.1921508148694,4674.772688027343,7924.306750585027,-352.5642934125675,-8805.85443697489,-4746.345442744773,-5846.088804996993,-19655.12888454874,0.0
1530.156423982232,4675.558678345371,7924.592565246127,-353.0882869579197,-8803.389285522891,-4743.939836013838,-5841.920674522599,-19643.17230455934,0.0
1532.8597543184808,4676.475667049738,7927.176806140251,-350.8970412228104,-8802.86529197754,-4747.810242882917,-5840.8012337666205,-19629.64374393388,0.0
1534.6460959503636,4676.2970328865495,7926.986263032851,-350.8255875575351,-8804.746905163121,-4752.407095348962,-5846.5770717097075,-19619.08051041735,0.0
1533.014570593244,4675.332408405333,7925.6167344484065,-351.5520331545007,-8805.413806039025,-4753.359810885966,-5852.233820210669,-19620.604855276553,0.0
1533.4075657522583,4676.368486551824,7925.58100761577,-350.96849488808573,-8803.10347086179,-4749.215498299998,-5849.99493869871,-19624.165629596107,0.0
1533.729107245997,4675.761130396984,7924.080480644988,-353.06446906949463,-8803.746553849269,-4749.334587742123,-5848.4229580626525,-19630.21537325608,0.0
1534.8366390577644,4674.582144919942,7923.675576541762,-354.1839098254744,-8804.258638450408,-4750.692207382354,-5850.995290012564,-19637.074925122513,0.0
1535.1462716072906,4673.534157829237,7923.342126103809,-354.326817156025,-8803.69891807242,-4750.287303279128,-5850.709475351462,-19645.827999118737,0.0
1534.1935560702864,4673.486522052388,7923.556487099637,-354.3029992675999,-8802.8295651449,-4748.858229973622,-5848.22050601104,-19652.628006264105,0.0
1533.4313836406832,4674.463055477816,7924.640201022978,-352.1951161419784,-8799.935691701252,-4746.3216248563485,-5843.349747828106,-19651.389476065997,0.0
1535.217725272566,4675.070411632657,7925.06892301463,-351.8854835924521,-8801.50767233731,-4746.083445972097,-5842.373214402677,-19646.459173162002,0.0
1536.1347139769323,4675.713494620135,7924.914106739867,-353.7194610011849,-8803.544101797655,-4748.953501527321,-5844.076193425072,-19635.39576398854,0.0
1535.348723658904,4676.666210157138,7925.378555564156,-351.62348681977596,-8800.566865744517,-4747.2624314491395,-5844.945546352588,-19624.844439416225,0.0
1538.8380443131814,4676.511393882375,7925.640552336832,-350.88513227859784,-8799.852329091764,-4744.987823104543,-5843.790378763971,-19616.782084184324,0.0
1538.0758718835782,4676.547120715013,7926.009729607421,-349.9205077973812,-8799.721330705426,-4743.29675302636,-5843.980921871371,-19618.330246931957,0.0
1535.1224537188655,4678.0714655742195,7926.7480841486,-348.7296133761261,-8799.090156662161,-4741.796226055579,-5841.9325834668125,-19627.77403969251,0.0
1530.6446906949463,4676.2255792212745,7924.163843254476,-352.683382854693,-8804.008550621944,-4747.393429835478,-5844.552551193574,-19640.659517330492,0.0
1529.1798905568025,4674.6416896410055,7922.246503236255,-354.68408548240154,-8805.366170262174,-4751.216200927706,-5847.839419796238,-19651.377567121785,0.0
1532.4429412710415,4675.070411632657,7923.544578155424,-354.86271964558983,-8804.187184785133,-4748.917774694684,-5846.184076550693,-19656.010146420467,0.0
1535.1105447746531,4676.916297985602,7925.473827117858,-353.8742772759481,-8804.091913231432,-4748.6200510893705,-5844.183373922985,-19650.162854812104,0.0
1534.181647126074,4676.082671890724,7924.116207477626,-354.73172125925174,-8804.842176716824,-4750.942295210818,-5843.849923485033,-19643.4223923878,0.0
1534.3840991776874,4675.3919531263955,7922.437046343655,-355.4462579120048,-8804.675451497847,-4750.823205768693,-5844.373917030385,-19636.229390083423,0.0
1536.9683400718109,4674.582144919942,7921.924961742516,-354.02909355071125,-8802.305571599549,-4747.750698161854,-5843.6712893218455,-19625.39225085,0.0
1539.3620378585335,4674.212967649352,7921.805872300391,-353.5289178937841,-8801.495763393097,-4748.346145372482,-5846.041169220143,-19617.913433884518,0.0
1539.1595858069204,4674.343966035691,7921.639147081416,-354.81508386873963,-8801.79348699841,-4749.0368641368095,-5847.446424637224,-19615.591189763072,0.0
1537.6947856687764,4673.9986066535275,7921.186607201338,-355.43434896779223,-8803.460739188165,-4749.763309733776,-5847.85132874045,-19624.391899536146,0.0
1534.6818227830013,4673.939061932465,7921.484330806652,-355.32716846987927,-8804.770723051548,-4750.727934214992,-5850.935745291501,-19638.34918215326,0.0
1532.6096664900174,4672.212265021644,7921.091335647638,-354.7912659803145,-8804.41345472517,-4747.86978760398,-5851.614555111616,-19649.94849381628,0.0
1531.5497704551003,4672.84343906491,7921.746327579329,-354.2434545465371,-8801.733942277348,-4745.321273542494,-5848.018053959427,-19653.949899071697,0.0
1534.1578292376487,4675.963582448598,7924.842653074591,-351.3257632144622,-8799.864238035978,-4747.071888341739,-5846.07689605278,-19654.628708891814,0.0
1534.4674617871751,4675.2014100189945,7923.413579769086,-352.88583490630634,-8802.579477316438,-4752.061735966798,-5848.994587384855,-19648.983869335065,0.0
1536.7897059086226,4673.831881434551,7923.008675665858,-352.86201701788127,-8801.007496680382,-4749.2631340768485,-5847.410697804586,-19638.02764065952,0.0
1539.302493137471,4674.343966035691,7923.711303374398,-352.2784787514663,-8801.257584508845,-4750.727934214992,-5848.149052345764,-19625.011164635198,0.0
1540.9578363830155,4675.951673504385,7924.1042985334125,-352.5404755241424,-8800.281051083415,-4748.953501527321,-5843.552199879719,-19615.31728404618,0.0
1538.5879564847178,4675.665858843285,7923.234945605897,-352.74292757575574,-8800.042872199165,-4746.5836216290245,-5839.49124990324,-19614.626565281855,0.0
1533.6576535807217,4673.022073228098,7921.031790926574,-353.7670967780351,-8801.60294389101,-4746.893254178551,-5841.26568259091,-19622.950917286427,0.0
1532.9550258721813,4673.4031594429,7920.912701484449,-354.2910903233873,-8801.662488612074,-4746.8098915690625,-5839.860427173829,-19632.954430424972,0.0
1533.6933804133596,4673.712791992426,7921.746327579329,-353.3621926748084,-8800.983678791958,-4746.428805354261,-5838.598079087299,-19642.219589022334,0.0
1533.860105632335,4672.509988626958,7921.460512918227,-353.74327888961005,-8799.757057538063,-4746.071537027885,-5843.314020995469,-19648.888597781362,0.0
1531.8474940604142,4670.580739664525,7919.69798917477,-355.29144163724163,-8802.234117934275,-4748.655777922008,-5845.7077187821915,-19645.827999118737,0.0
1531.5616793993127,4670.223471338149,7919.031088298866,-355.05326275299063,-8801.18613084357,-4747.071888341739,-5841.170411037209,-19639.933071733525,0.0
1534.419826010325,4670.283016059211,7918.435641088239,-356.85151332908583,-8805.66389386749,-4749.0368641368095,-5841.4443167540985,-19632.704342596506,0.0
1535.8727172042563,4670.2949250034235,7918.53091264194,-356.62524338904734,-8806.426066297092,-4751.0732935971555,-5843.0639331670045,-19621.27175615246,0.0
1536.6944343549221,4670.5569217761,7920.102893277996,-355.2080790277538,-8802.603295204863,-4749.1916804115735,-5842.790027450116,-19617.651437111843,0.0
1535.8131724831935,4670.592648608737,7920.186255887484,-355.8511620152315,-8802.579477316438,-4748.751049475709,-5842.921025836455,-19620.91448782608,0.0
1536.0275334790194,4671.21191370779,7920.4482526601605,-354.85081070137727,-8802.329389487973,-4747.333885114415,-5842.516121733228,-19627.071411983972,0.0
1534.896183778827,4670.771282771925,7919.709898118982,-355.0651716972032,-8801.614852835222,-4747.036161509101,-5843.909468206096,-19639.230444024983,0.0
1534.1340113492238,4669.866203011772,7918.149826427138,-355.43434896779223,-8801.591034946796,-4748.465234814607,-5844.743094300975,-19645.83990806295,0.0
1533.6695625249342,4671.033279544602,7918.840545191467,-355.0294448645655,-8802.091210603723,-4749.048773081023,-5843.826105596609,-19647.554796029555,0.0
1533.7410161902096,4671.319094205704,7918.781000470403,-356.2917929510959,-8803.460739188165,-4750.1324870043645,-5845.910170833805,-19647.24516348003,0.0
1535.1939073841406,4669.937656677047,7917.50674343966,-356.2679750626708,-8803.020108252304,-4751.144747262431,-5847.2558815298235,-19640.37370266939,0.0
1536.17044080957,4668.853942753704,7916.720753121632,-355.77970834995625,-8803.401194467104,-4752.58572951215,-5846.898613203446,-19631.382449788915,0.0
1537.599514115076,4668.020316658826,7915.494131867739,-358.51876551884294,-8804.401545780958,-4753.812350766043,-5846.255530215968,-19625.547067124764,0.0
1538.9214069226691,4670.818918548776,7918.471367920876,-355.6487099636182,-8800.042872199165,-4750.489755330741,-5844.850274798887,-19619.830773902737,0.0
1537.0159758486611,4670.914190102476,7919.60271762107,-354.57690498448864,-8800.840771461406,-4750.882750489755,-5847.541696190924,-19622.891372565366,0.0
1534.920001667252,4669.723295681221,7917.792558100762,-357.50650526077607,-8802.996290363877,-4752.645274233212,-5847.494060414074,-19631.525357119463,0.0
1533.6814714691468,4670.0686550633845,7917.995010152375,-357.92331830821536,-8801.150404010932,-4749.7871276222,-5845.505266730578,-19643.20803139198,0.0
1533.6338356922965,4670.9380079909015,7918.923907800954,-356.83960438487327,-8800.733590963493,-4746.416896410048,-5843.409292549169,-19650.04376536998,0.0
1535.1105447746531,4671.176186875153,7919.138268796779,-355.77970834995625,-8801.65057966786,-4745.047367825606,-5842.135035518426,-19655.49806181933,0.0
1533.8720145765476,4670.437832333974,7918.626184195639,-356.07743195527,-8802.210300045848,-4747.083797285952,-5842.8733900596035,-19658.16566532294,0.0
1533.5266551943837,4669.223120024294,7917.590106049147,-357.9114093640028,-8804.8183588284,-4753.7170792123425,-5846.624707486558,-19649.48404499199,0.0
1533.776743022847,4668.12749715674,7915.803764417265,-360.2574713738753,-8807.40259972252,-4754.110074371356,-5846.58898065392,-19640.623790497855,0.0
1534.5150975640254,4669.782840402284,7918.006919096587,-358.0304988061284,-8804.723087274697,-4750.525482163379,-5843.59983565657,-19628.857753615852,0.0
1534.5746422850882,4668.996850084255,7918.816727303041,-356.20843034160805,-8802.329389487973,-4751.216200927706,-5847.14870103191,-19621.474208204072,0.0
1533.4432925848957,4667.019965344972,7915.970489636241,-358.53067446305545,-8803.234469248127,-4752.335641683686,-5848.506320672141,-19622.12920013576,0.0
1533.729107245997,4668.020316658826,7917.1256572248585,-357.9352272524279,-8801.32903817412,-4750.442119553891,-5846.326983881244,-19627.10713881661,0.0
1532.3357607731286,4668.532401259966,7917.673468658636,-358.1853150808915,-8800.06669008759,-4748.596233200946,-5847.839419796238,-19637.90855121739,0.0
1530.7042354160092,4669.651842015946,7918.828636247254,-357.70895731238943,-8800.650228354005,-4748.024603878743,-5847.339244139311,-19646.566353659913,0.0
1530.8828695791974,4668.580037036817,7916.137214855217,-361.8413609541446,-8806.592791516068,-4752.157007520498,-5847.041520533997,-19648.5432383992,0.0
1530.8233248581348,4667.686866220875,7915.3512245371885,-362.8536212122114,-8809.272303963891,-4756.420409548591,-5848.792135333242,-19650.78211991116,0.0
1530.4541475875455,4666.924693791272,7914.815322047623,-361.29354952036726,-8807.771776993111,-4754.372071144032,-5849.959211866071,-19643.148486670914,0.0
1531.0853216308108,4665.93625142163,7914.184148004359,-361.36500318564254,-8806.842879344531,-4754.419706920883,-5852.043277103268,-19632.62097998702,0.0
1533.145568979582,4668.87776064213,7917.161384057496,-358.41158502093,-8803.972823789307,-4751.7163765846335,-5848.982678440643,-19622.87946362115,0.0
1531.4068631245495,4669.330300522207,7917.268564555409,-358.0900435271911,-8804.17527584092,-4752.347550627899,-5847.517878302499,-19616.7582662959,0.0
1532.4786681036792,4669.092121637957,7917.066112503797,-358.42349396514254,-8803.889461179819,-4753.14544989014,-5848.232414955251,-19617.03217201279,0.0
1530.2159687032945,4668.544310204178,7917.578197104935,-358.47112974199274,-8805.318534485325,-4755.408149290524,-5843.790378763971,-19627.44058925456,0.0
1527.7269993628713,4667.603503611387,7917.292382443835,-359.04275906419514,-8803.949005900882,-4755.062789908361,-5845.076544738926,-19642.302951631824,0.0
1527.917542470272,4666.924693791272,7915.875218082541,-359.2213932273834,-8803.675100183993,-4754.800793135685,-5846.54134487707,-19650.567758915335,0.0
1529.12034583574,4669.747113569646,7917.983101208161,-357.45886948392587,-8800.75740885192,-4750.85893260133,-5843.9690129271585,-19651.711017559737,0.0
1529.9182450979808,4672.152720300582,7920.614977879137,-354.4578155423631,-8797.756354910354,-4748.036512822956,-5842.004037132087,-19645.399277127086,0.0
1530.4303296991204,4669.794749346497,7918.602366307214,-355.8035262383813,-8799.518878653813,-4748.465234814607,-5842.099308685789,-19636.872473070896,0.0
1529.6800662137298,4667.293871061861,7915.720401807777,-359.9716567127741,-8803.222560303915,-4748.98922835996,-5844.266736532473,-19629.82237809707,0.0
1531.478316789825,4668.103679268314,7916.673117344782,-359.53102577690976,-8802.62711309329,-4747.059979397526,-5841.9325834668125,-19623.224823003315,0.0
1532.192853442578,4668.31804026414,7916.80411573112,-359.55484366533483,-8803.591737574505,-4749.013046248384,-5841.051321595084,-19619.890318623802,0.0
1529.1084368915272,4668.091770324101,7916.268213241555,-359.9002030474988,-8804.211002673559,-4749.417950351612,-5839.77706456434,-19620.700126830256,0.0
1527.2030058175192,4669.747113569646,7917.792558100762,-357.8399556987275,-8801.257584508845,-4746.3216248563485,-5838.288446537772,-19630.001012260258,0.0
1527.2744594827946,4669.961474565473,7918.471367920876,-355.87497990365665,-8799.745148593853,-4745.02354993718,-5837.871633490333,-19638.37300004168,0.0
1528.584443346175,4669.008759028468,7917.280473499622,-357.70895731238943,-8800.602592577156,-4747.667335552367,-5839.562703568515,-19646.375810552516,0.0
1527.369731036495,4668.163223989377,7915.791855473054,-358.4592207977802,-8801.007496680382,-4750.739843159205,-5844.100011313497,-19654.831160943428,0.0
1526.0240203404767,4668.5204923157535,7916.7088441774185,-357.9352272524279,-8801.067041401444,-4751.502015588808,-5844.504915416724,-19654.700162557085,0.0
1527.155370040669,4669.985292453897,7918.185553259776,-357.03014749227407,-8799.602241263301,-4749.227407244211,-5843.552199879719,-19646.899804097866,0.0
1528.3343555177116,4670.271107114999,7918.292733757688,-356.6014255006222,-8799.423607100112,-4747.9412412692545,-5841.277591535122,-19633.383152416623,0.0
1530.4303296991204,4670.378287612911,7918.792909414616,-355.6248920751931,-8798.232712678857,-4747.893605492405,-5839.58652145694,-19622.629375792687,0.0
1530.7042354160092,4669.282664745358,7917.733013379698,-357.3397800418004,-8801.209948731996,-4751.2638367045565,-5843.730834042908,-19616.960718347513,0.0
1528.322446573499,4668.556219148391,7916.7445710100565,-356.9229669943611,-8800.53113891188,-4752.109371743648,-5847.041520533997,-19615.31728404618,0.0
1524.928397472922,4668.496674427329,7917.459107662809,-355.43434896779223,-8796.958455648113,-4749.596584514799,-5843.0282063343675,-19622.057746470484,0.0
1525.6310251814625,4669.020667972681,7916.958932005882,-356.54188077955945,-8796.51782471225,-4748.608142145158,-5841.384772033035,-19636.69383890771,0.0
1524.6544917560334,4667.031874289185,7914.493780553886,-360.5909218118268,-8800.126234808653,-4749.4536771842495,-5842.373214402677,-19647.18561875897,0.0
1523.9042282706425,4668.734853311579,7915.244044039276,-360.2574713738753,-8799.483151821176,-4744.964005216118,-5838.526625422023,-19651.032207739623,0.0
1524.4401307602072,4669.068303749531,7915.565585533014,-359.91211199171136,-8800.590683632943,-4744.189923842301,-5837.788270880845,-19649.329228717226,0.0
1527.6436367533836,4669.3898452432695,7915.434587146676,-361.31736740879234,-8802.543750483801,-4749.227407244211,-5841.051321595084,-19641.528870258007,0.0
1530.8590516907725,4670.163926617086,7917.5424702722985,-359.2571200600211,-8802.639022037501,-4750.668389493929,-5841.539588307798,-19630.596459470886,0.0
1531.1210484634485,4669.270755801144,7917.101839336433,-359.1737574505332,-8802.424661041676,-4749.072590969447,-5840.586872770794,-19621.22412037561,0.0
1531.430681012975,4667.639230444024,7915.267861927701,-360.2693803180879,-8801.912576440536,-4748.084148599805,-5841.4800435867355,-19617.353713506527,0.0
1530.787598025497,4668.889669586343,7915.553676588801,-358.3639492440798,-8799.542696542238,-4744.999732048755,-5839.741337731703,-19619.151964082623,0.0
1530.2755134243573,4668.044134547252,7914.755777326562,-358.62594601675585,-8802.639022037501,-4748.774867364134,-5839.800882452766,-19624.796803639372,0.0
1529.9301540421934,4667.722593053512,7914.767686270774,-359.126121673683,-8803.067744029153,-4750.632662661292,-5840.015243448592,-19636.9677446246,0.0
1528.3819912945617,4667.031874289185,7912.945617806254,-361.4007300182802,-8804.484908390446,-4752.704818954276,-5842.301760737401,-19643.98211276579,0.0
1526.3455618342155,4667.341506838711,7913.11234302523,-362.0557219499705,-8805.044628768437,-4754.729339470409,-5844.004739759796,-19650.198581644745,0.0
1527.3816399807074,4667.174781619736,7914.05314961802,-361.4245479067053,-8804.865994605247,-4754.8484289125345,-5845.731536670617,-19651.17511507017,0.0
1529.858700376918,4667.698775165088,7915.017774099238,-360.0192924896243,-8801.817304886834,-4752.216552241561,-5845.648174061129,-19642.20768007812,0.0
1531.2996826266367,4667.996498770402,7915.517949756165,-358.1376793040413,-8798.161259013583,-4749.024955192597,-5844.064284480859,-19628.214670628375,0.0
1534.098284516586,4665.674254648954,7912.993253583102,-361.99617722890775,-8803.829916458755,-4752.7286368427,-5846.672343263408,-19617.377531394955,0.0
1533.6695625249342,4663.756914630733,7911.349819281771,-364.5327823461811,-8807.62886966256,-4755.539147676863,-5850.673748518825,-19613.923937573312,0.0
1531.4664078456124,4666.091067696393,7912.397806372475,-362.91316593327423,-8805.1994450432,-4752.645274233212,-5843.623653544995,-19617.198897231767,0.0
1530.7161443602217,4666.638879130171,7912.326352707201,-364.0087888008288,-8804.437272613597,-4750.370665888616,-5842.62330223114,-19623.99890437713,0.0
1529.8110646000678,4665.900524588993,7912.897982029403,-362.8298033237863,-8802.519932595376,-4748.405690093545,-5840.729780101345,-19634.72886311264,0.0
1530.4898744201832,4665.364622099428,7912.612167368301,-361.29354952036726,-8802.460387874313,-4748.882047862047,-5839.407887293752,-19646.48299105043,0.0
1528.322446573499,4666.007705086905,7912.6717120893645,-360.23365348545025,-8801.436218672034,-4749.6918560685,-5838.848166915762,-19653.044819311544,0.0
1526.9767358774807,4666.829422237572,7914.51759844231,-359.0665769526202,-8801.436218672034,-4752.1689164647105,-5844.373917030385,-19651.49665656391,0.0
1529.0965279473148,4667.508232057688,7916.184850632067,-359.1023037852579,-8802.948654587026,-4754.21725486927,-5850.79283796095,-19647.459524475857,0.0
1531.0853216308108,4669.008759028468,7916.80411573112,-357.82804675451496,-8801.221857676208,-4752.966815726952,-5848.73259061218,-19633.50224185875,0.0
1532.4191233826166,4669.330300522207,7916.470665293168,-358.38776713250485,-8801.28140239727,-4751.454379811958,-5844.790730077824,-19622.950917286427,0.0
1531.7522225067135,4668.5204923157535,7915.863309138328,-359.34048266950896,-8801.174221899357,-4749.763309733776,-5840.705962212919,-19618.127794880344,0.0
1528.822622230426,4668.496674427329,7914.839139936049,-358.56640129569314,-8800.67404624243,-4749.17977146736,-5838.502807533598,-19619.40205191109,0.0
1529.441887329479,4669.5446615180335,7917.042294615371,-356.85151332908583,-8799.04252088531,-4747.21479567229,-5837.133278949155,-19625.880517562713,0.0
1530.3469670896327,4669.330300522207,7916.315849018404,-358.1853150808915,-8800.269142139203,-4748.5485974240955,-5839.562703568515,-19637.182105620424,0.0
1529.9777898190437,4667.520141001899,7914.898684657112,-359.9716567127741,-8802.293662655338,-4750.799387880267,-5842.599484342716,-19649.650770210967,0.0
1528.7392596209384,4667.139054787098,7913.767334956919,-360.9720080266284,-8803.00819930809,-4752.859635229039,-5844.445370695661,-19651.43711184285,0.0
1525.750114623588,4667.091419010248,7913.707790235857,-360.1621998201749,-8801.924485384747,-4752.216552241561,-5844.362008086173,-19650.663030469033,0.0
1528.1438124103108,4668.008407714614,7914.922502545536,-358.2210419135292,-8798.828159889485,-4749.608493459012,-5843.9332860945215,-19641.82659386332,0.0
1529.5609767716041,4668.4490386504785,7915.720401807777,-358.3520402998672,-8797.22045242079,-4748.024603878743,-5842.790027450116,-19630.918000964626,0.0
1530.1087882053816,4667.996498770402,7914.56523421916,-360.55519497918914,-8799.4116981559,-4748.893956806259,-5842.849572171179,-19620.057043842775,0.0
1533.145568979582,4666.257792915369,7912.6717120893645,-362.5320797184725,-8802.031665882661,-4748.798685252559,-5843.385474660743,-19616.3771800811,0.0
1533.9077414091853,4665.126443215177,7911.57608922181,-362.79407649114864,-8802.698566758563,-4747.441065612328,-5845.112271571564,-19616.353362192676,0.0
1532.752573820568,4665.340804211003,7910.873461513269,-363.25852531543813,-8802.936745642815,-4747.059979397526,-5843.623653544995,-19625.15407196575,0.0
1529.5371588831792,4664.459542339274,7909.908837032053,-364.1516961313795,-8805.235171875836,-4753.026360448014,-5841.646768805712,-19643.493846053076,0.0
1528.2629018524362,4663.816459351796,7909.789747589928,-363.23470742701306,-8804.73499621891,-4754.657885805134,-5842.742391673267,-19653.49735919162,0.0
1528.8464401188512,4662.566020209478,7908.563126336034,-364.4851465693309,-8805.520986536938,-4755.384331402099,-5845.922079778017,-19656.05778219732,0.0
1529.191799501015,4663.316283694869,7909.646840259377,-364.1874229640171,-8804.234820561982,-4754.419706920883,-5846.279348104394,-19650.674939413246,0.0
1530.8590516907725,4665.662345704741,7911.635633942872,-362.46062605319725,-8800.91222512668,-4753.24072144384,-5847.85132874045,-19641.469325536942,0.0
1532.5977575458046,4665.293168434152,7912.195354320863,-360.34083398336315,-8798.601889949447,-4750.382574832828,-5847.303517306673,-19628.167034851525,0.0
1533.2884763101326,4664.554813892974,7911.730905496573,-360.43610553706355,-8798.971067220036,-4749.394132463186,-5845.27899679054,-19618.81851364467,0.0
1533.0979332027318,4664.804901721438,7911.3855461144085,-362.4963528858349,-8803.043926140728,-4751.109020429794,-5843.683198266058,-19612.8640415384,0.0
1531.8951298372644,4664.090365068684,7909.861201255202,-364.5685091788188,-8804.627815720996,-4750.489755330741,-5843.361656772319,-19612.125686997217,0.0
1532.6096664900174,4663.816459351796,7909.837383366777,-364.73523439779444,-8803.93709695667,-4748.953501527321,-5842.825754282754,-19620.700126830256,0.0
1533.3122941985578,4666.615061241746,7913.945969120107,-359.9002030474988,-8799.328335546412,-4743.820746571712,-5838.645714864148,-19630.01292120447,0.0
1533.0383884816692,4669.34220946642,7916.006216468879,-357.56604998183883,-8795.660380728947,-4740.093247033184,-5836.621194348016,-19640.361793725177,0.0
1532.8359364300557,4667.996498770402,7913.529156072667,-360.88864541714054,-8799.68560387279,-4746.214444358435,-5837.383366777619,-19649.24586610774,0.0
1530.0492434843188,4666.102976640606,7911.492726612321,-363.6515204744523,-8803.282105024979,-4751.27574564877,-5839.181617353713,-19645.64936495555,0.0
1530.6685085833717,4666.900875902847,7912.254899041925,-362.0676308941831,-8802.246026878487,-4750.668389493929,-5838.621896975723,-19640.052161175652,0.0
1533.1336600353695,4667.008056400759,7911.528453444959,-361.5674552372559,-8801.698215444709,-4751.359108258258,-5840.729780101345,-19630.870365187773,0.0
1533.3122941985578,4666.114885584818,7910.873461513269,-363.23470742701306,-8802.460387874313,-4753.6456255470675,-5845.98162449908,-19619.914136512227,0.0
1533.2051137006447,4666.91278484706,7912.838437308341,-361.7222715120191,-8801.912576440536,-4754.181528036632,-5847.077247366634,-19612.613953709933,0.0
1533.145568979582,4667.460596280836,7913.981695952745,-359.0308501199826,-8799.006794052673,-4751.502015588808,-5849.804395591309,-19611.851781280333,0.0
1531.9427656141145,4666.35306446907,7913.302886132629,-360.23365348545025,-8798.185076902007,-4751.097111485581,-5851.948005549568,-19619.664048683764,0.0
1529.989698763256,4666.114885584818,7913.612518682156,-360.4837413139138,-8798.613798893659,-4749.537039793737,-5845.802990335891,-19630.179646423447,0.0
1531.3830452361246,4665.066898494114,7912.79080153149,-362.3534455552843,-8803.079652973365,-4753.6456255470675,-5845.183725236839,-19639.706801793487,0.0
1529.0012563936143,4664.054638236047,7911.885721771336,-363.88969935870335,-8804.532544167296,-4755.2652419599735,-5845.219452069477,-19647.257072424243,0.0
1527.39354892492,4667.698775165088,7915.494131867739,-360.2574713738753,-8798.661434670508,-4749.894308120114,-5843.147295776493,-19642.350587408673,0.0
1529.7157930463673,4670.473559166612,7917.399562941748,-357.94713619664043,-8797.589629691378,-4748.774867364134,-5841.36095414461,-19629.619926045456,0.0
1529.6324304368798,4670.961825879326,7917.137566169071,-359.31666478108383,-8799.614150207513,-4748.917774694684,-5840.979867929808,-19622.284016410526,0.0
1530.0373345401063,4670.259198170786,7916.696935233206,-358.780762291519,-8798.578072061022,-4746.666984238512,-5840.33678494233,-19615.62691659571,0.0
1528.8107132862135,4668.580037036817,7915.529858700377,-359.1142127294704,-8798.399437897833,-4748.679595810434,-5842.1231265742135,-19613.042675701585,0.0
1530.1326060938068,4669.187393191656,7915.7680375846285,-358.47112974199274,-8798.220803734646,-4748.262782762994,-5841.456225698311,-19613.20940092056,0.0
1528.7868953977886,4668.163223989377,7914.184148004359,-360.2217445412377,-8800.007145366526,-4748.8463210294085,-5843.456928326019,-19623.39154822229,0.0
1527.5364562554705,4667.508232057688,7914.231783781209,-361.22209585509194,-8800.150052697078,-4749.310769853699,-5843.83801454082,-19635.121858271654,0.0
1526.8457374911425,4667.925045105126,7914.315146390696,-360.65046653288954,-8798.935340387397,-4748.786776308346,-5844.028557648221,-19645.29209662917,0.0
1526.071656117327,4666.769877516508,7912.635985256727,-361.1625511340292,-8800.43586735818,-4751.168565150857,-5846.898613203446,-19651.4847476197,0.0
1526.6194675511042,4665.852888812143,7911.57608922181,-362.7345317700859,-8803.270196080766,-4753.931440208168,-5849.161312603831,-19649.71031493203,0.0
1529.0608011146771,4666.793695404934,7913.874515454833,-361.2340047993045,-8800.447776302392,-4751.4186529793205,-5845.755354559041,-19638.59926998172,0.0
1530.466056531758,4666.555516520682,7913.362430853693,-359.9716567127741,-8799.506969709599,-4750.501664274953,-5843.385474660743,-19627.095229872397,0.0
1530.8709606349848,4667.496323113474,7913.279068244205,-360.531377090764,-8797.887353296694,-4750.3944837770405,-5843.242567330193,-19618.127794880344,0.0
1531.930856669902,4667.329597894498,7912.076264878738,-362.46062605319725,-8798.506618395746,-4749.894308120114,-5842.861481115392,-19614.567020560793,0.0
1531.2877736824241,4665.757617258442,7911.147367230158,-364.0683335218916,-8798.506618395746,-4749.5013129611,-5843.2544762744055,-19616.222363806333,0.0
1531.109139519236,4666.698423851233,7913.183796690504,-363.5919757533896,-8797.899262240906,-4746.869436290125,-5840.181968667568,-19623.594000273904,0.0
1530.394602866483,4669.032576916894,7915.482222923527,-359.8049314937984,-8796.744094652287,-4744.654372666591,-5836.323470742701,-19632.99015725761,0.0
1529.036983226252,4666.472153911195,7912.266807986138,-362.1152666710333,-8799.864238035978,-4747.631608719728,-5839.181617353713,-19645.92327067244,0.0
1528.882166951489,4667.686866220875,7912.37398848405,-363.5919757533896,-8801.32903817412,-4750.013397562239,-5840.825051655046,-19652.925729869417,0.0
1530.466056531758,4668.7110354231545,7914.005513841171,-362.7821675469361,-8798.375620009407,-4749.203589355785,-5837.526274108169,-19653.140090865247,0.0
1530.6923264717966,4669.175484247444,7915.255952983489,-362.4010813321345,-8796.625005210162,-4748.346145372482,-5837.371457833406,-19644.518015255355,0.0
1531.7760403951388,4668.246586598865,7915.327406648763,-361.7937251772944,-8797.101362978665,-4748.369963260908,-5838.407535979898,-19628.464758456837,0.0
1532.9669348163939,4668.282313431502,7915.291679816125,-360.50755920233894,-8797.92308012933,-4747.929332325042,-5837.692999327145,-19615.924640201025,0.0
1535.3368147146914,4668.865851697918,7915.494131867739,-359.55484366533483,-8797.92308012933,-4747.893605492405,-5836.085291858451,-19612.911677315245,0.0
1535.6940830410679,4668.389493929416,7914.362782167547,-359.8525672706486,-8797.029909313389,-4746.262080135286,-5838.56235225466,-19614.45984006288,0.0
1533.1098421469444,4667.305780006073,7912.314443762988,-362.18672033630855,-8797.482449193465,-4746.714620015363,-5837.8954513787585,-19624.02272226556,0.0
1530.2636044801447,4667.389142615561,7913.028980415741,-362.41299027634705,-8798.494709451532,-4750.8470236571175,-5843.349747828106,-19637.098743010934,0.0
1528.1438124103108,4668.5204923157535,7915.267861927701,-360.24556242966275,-8795.970013278473,-4747.40533877969,-5842.277942848977,-19643.708207048905,0.0
1526.9767358774807,4667.270053173435,7913.779243901131,-361.5198194604057,-8796.696458875438,-4748.262782762994,-5842.075490797363,-19651.17511507017,0.0
1529.1322547799525,4666.960420623909,7912.493077926176,-362.41299027634705,-8798.99488510846,-4750.1324870043645,-5845.017000017863,-19649.626952322542,0.0
1530.9900500771103,4665.900524588993,7912.266807986138,-362.17481139209605,-8799.054429829523,-4752.716727898488,-5848.78022638903,-19639.21853508077,0.0
1532.3476697173412,4666.257792915369,7913.11234302523,-360.60283075603934,-8797.49435813768,-4750.06103333909,-5847.720330354112,-19624.12990276347,0.0
1532.0142192793896,4666.329246580644,7912.826528364128,-361.34118529721746,-8799.745148593853,-4750.763661047629,-5848.744499556391,-19616.555814244286,0.0
1530.311240256995,4666.293519748007,7912.111991711374,-360.4956502581264,-8799.244972936924,-4751.478197700383,-5847.887055573088,-19613.268945641623,0.0
1527.869906693422,4664.661994390887,7909.408661375126,-363.6515204744523,-8803.591737574505,-4756.015505445365,-5847.136792087697,-19617.544256613928,0.0
1529.0965279473148,4665.162170047814,7910.2541964142165,-363.6038846976021,-8802.662839925926,-4754.562614251433,-5845.457630953728,-19626.54741843862,0.0
1528.9774385051894,4667.603503611387,7913.326704021055,-360.2098355970251,-8798.411346842046,-4750.978022043456,-5843.587926712357,-19633.859510185124,0.0
1526.7861927700799,4665.971978254268,7911.62372499866,-362.4368081647721,-8800.16196164129,-4752.097462799436,-5845.588629340065,-19643.100850894065,0.0
1526.762374881655,4664.304726064511,7910.004108585753,-365.29495477578433,-8802.317480543761,-4753.979075985018,-5849.173221548044,-19647.971609076998,0.0
1525.6786609583128,4665.531347318404,7911.456999779685,-364.7709612304321,-8802.043574826874,-4754.991336243085,-5850.828564793588,-19649.96040276049,0.0
1528.0604498008229,4666.996147456547,7912.552622647239,-363.4967041996892,-8801.460036560458,-4751.633013975145,-5842.766209561691,-19644.16074692898,0.0
1529.8944272095557,4668.591945981029,7913.81497073377,-362.0676308941831,-8799.233063992711,-4747.643517663942,-5838.717168529424,-19631.91835227848,0.0
1529.644339381092,4668.22276871044,7913.493429240031,-362.5916244395353,-8799.899964868613,-4748.905865750472,-5841.122775260359,-19622.30783429895,0.0
1528.798804342001,4666.198248194306,7910.885370457482,-364.25887662929244,-8802.210300045848,-4750.108669115939,-5842.849572171179,-19621.843385474658,0.0
1528.346264461924,4665.114534270964,7910.111289083666,-363.6277025860272,-8802.091210603723,-4751.204291983494,-5842.337487570039,-19620.878760993444,0.0
1527.0362805985435,4665.126443215177,7910.6710094616565,-362.4487171089847,-8800.554956800304,-4749.751400789563,-5840.932232152958,-19628.1432169631,0.0
1525.0951226918976,4666.091067696393,7912.552622647239,-361.34118529721746,-8798.935340387397,-4749.596584514799,-5841.229955758272,-19642.052863803357,0.0
1524.2495876528064,4665.745708314229,7911.064004620671,-364.3779660714179,-8802.293662655338,-4754.038620706082,-5844.909819519949,-19654.152351123314,0.0
1527.4530936459828,4666.531698632258,7911.921448603974,-363.8777904144908,-8800.75740885192,-4751.8711928593975,-5845.100362627351,-19659.249379246285,0.0
1525.6905699025253,4665.745708314229,7911.3855461144085,-363.5919757533896,-8800.304868971842,-4752.823908396401,-5847.75605718675,-19660.285457392776,0.0
1522.6180622956872,4665.793344091079,7911.409364002834,-362.3415366110717,-8798.863886722122,-4751.9426465246715,-5847.19633680876,-19651.973014332412,0.0
1523.84468354958,4664.685812279313,7910.468557410042,-363.341887924926,-8799.661785984363,-4751.180474095068,-5847.279699418247,-19638.87317569861,0.0
1526.1669276710272,4662.33975026944,7906.276609047224,-368.2245550520719,-8803.758462793481,-4754.1338922597815,-5848.149052345764,-19629.060205667465,0.0
1527.1791879290943,4662.470748655778,7906.097974884037,-368.6056412668735,-8805.485259704301,-4754.705521581984,-5848.684954835328,-19626.380693219642,0.0
1527.1791879290943,4664.471451283486,7909.063301992961,-365.3425905526346,-8802.603295204863,-4752.5500026795125,-5845.755354559041,-19624.49908003406,0.0
1524.45203970442,4664.173727678172,7908.956121495048,-365.00914011468313,-8802.305571599549,-4751.430561923533,-5844.874092687312,-19632.99015725761,0.0
1523.916137214855,4662.315932381015,7908.039132790682,-365.9499467074746,-8802.472296818525,-4752.5500026795125,-5846.791432705533,-19645.149189298623,0.0
1524.7497633097337,4663.590189411758,7909.3491166540625,-363.6753383628774,-8800.292960027627,-4752.02600913416,-5846.517526988644,-19653.759355964296,0.0
1524.4877665370577,4663.221012141169,7909.134755658238,-362.5797154953227,-8799.292608713775,-4751.4186529793205,-5845.0289089620765,-19655.54569759618,0.0
1526.4646512763409,4661.851483556725,7908.182040121233,-364.1397871871669,-8799.899964868613,-4753.383628774391,-5845.433813065302,-19651.06793457226,0.0
1528.0485408566103,4662.685109651604,7908.7060336665845,-363.94924407976606,-8798.792433056848,-4754.514978474583,-5845.231361013689,-19644.81573886067,0.0
1528.3700823503493,4662.625564930541,7907.312687193717,-364.99723117047057,-8799.244972936924,-4755.622510286351,-5849.959211866071,-19635.22903876957,0.0
1531.8832208930517,4663.494917858057,7908.241584842296,-364.54469129039364,-8797.720628077717,-4751.644922919359,-5848.018053959427,-19625.594702901613,0.0
1532.8121185416308,4663.590189411758,7909.789747589928,-364.9376864494078,-8798.351802120982,-4749.0011373041725,-5843.730834042908,-19618.937603086797,0.0
1530.5256012528207,4662.828016982155,7908.193949065445,-367.60528995301917,-8801.912576440536,-4751.895010747822,-5844.1238292019225,-19617.806253386603,0.0
1528.882166951489,4663.078104810618,7908.241584842296,-367.4385647340435,-8802.341298432188,-4753.324084053328,-5844.242918644048,-19624.89207519307,0.0
1528.2986286850737,4664.947809051989,7910.563828963744,-364.21124085244224,-8801.150404010932,-4753.121632001715,-5845.648174061129,-19637.39646661625,0.0
1530.2755134243573,4667.270053173435,7913.183796690504,-361.80563412150696,-8801.090859289869,-4755.169970406274,-5848.303868620527,-19648.07878957491,0.0
1530.8233248581348,4669.151666359019,7914.362782167547,-360.7100112539523,-8798.625707837871,-4752.704818954276,-5845.588629340065,-19651.472838675487,0.0
1533.014570593244,4669.711386737009,7914.37469111176,-360.05501932226196,-8796.696458875438,-4749.096408857872,-5842.48039490059,-19648.840962004513,0.0
1531.2877736824241,4668.853942753704,7914.172239060145,-360.2693803180879,-8795.993831166898,-4747.643517663942,-5841.765858247837,-19640.159341673563,0.0
1528.7273506767256,4663.840277240221,7910.682918405869,-364.8424148957074,-8799.447424988537,-4751.097111485581,-5845.993533443292,-19626.011515949052,0.0
1529.0012563936143,4662.816108037941,7909.670658147803,-364.6280538998815,-8799.006794052673,-4752.573820567938,-5847.541696190924,-19617.46089400444,0.0
1531.001959021323,4665.745708314229,7912.37398848405,-362.3415366110717,-8797.863535408267,-4751.097111485581,-5843.385474660743,-19610.54179741695,0.0
1530.9662321886854,4666.91278484706,7913.386248742117,-362.5439886626851,-8800.042872199165,-4751.692558696208,-5841.55149725201,-19609.315176163054,0.0
1528.6082612346001,4665.829070923717,7911.730905496573,-363.23470742701306,-8798.673343614722,-4751.311472481407,-5844.826456910462,-19619.044783584708,0.0
1527.6436367533836,4665.852888812143,7912.814619419915,-363.3657058133511,-8798.05407851567,-4752.526184791087,-5843.50456410287,-19632.29943849328,0.0
1528.1199945218857,4668.020316658826,7915.625130254078,-360.6147397002519,-8795.874741724772,-4750.013397562239,-5843.266385218618,-19642.01713697072,0.0
1528.0723587450352,4669.115939526381,7915.887127026754,-360.3527429275757,-8794.50521314033,-4748.000785990318,-5842.182671295276,-19645.66127389976,0.0
1528.2271750197986,4668.508583371541,7914.600961051798,-361.0910974687539,-8794.159853758165,-4747.21479567229,-5838.705259585211,-19644.291745315317,0.0
1526.6432854395293,4666.388791301707,7911.9571754366125,-363.56815786496446,-8796.601187321738,-4750.001488618026,-5841.527679363586,-19638.575452093297,0.0
1527.1910968733066,4666.472153911195,7912.707438922002,-363.2466163712256,-8796.494006823825,-4749.7871276222,-5842.135035518426,-19630.691731024588,0.0
1530.7042354160092,4667.936954049339,7913.981695952745,-361.34118529721746,-8795.16020507202,-4748.977319415747,-5841.003685818234,-19618.794695756245,0.0
1532.752573820568,4668.5204923157535,7914.350873223334,-360.0431103780494,-8794.064582204464,-4747.96505915768,-5840.027152392804,-19614.745654723978,0.0
1531.0615037423856,4668.4490386504785,7914.243692725422,-360.531377090764,-8793.409590272773,-4746.178717525798,-5838.752895362061,-19615.245830380907,0.0
1529.5014320505416,4669.294573689569,7915.7680375846285,-359.41193633478423,-8792.802234117935,-4744.678190555016,-5836.918917953329,-19621.021668323996,0.0
1528.5963522903878,4669.747113569646,7915.863309138328,-359.7930225495859,-8794.171762702377,-4745.797631310996,-5837.39527572183,-19636.074573808655,0.0
1528.9178937841264,4670.104381896023,7915.279770871914,-361.10300641296647,-8794.600484694029,-4745.869084976272,-5839.824700341191,-19647.42379764322,0.0
1529.989698763256,4671.331003149916,7916.208668520491,-361.2578226877296,-8794.124126925528,-4745.511816649894,-5836.78791956699,-19651.139388237534,0.0
1529.644339381092,4671.271458428852,7917.1971108901325,-360.7219201981648,-8793.504861826475,-4742.153494381955,-5833.989317677041,-19644.756194139605,0.0
1530.0135166516814,4669.270755801144,7915.934762803603,-362.2581740015839,-8796.13673849745,-4743.844564460138,-5835.037304767745,-19637.777552831052,0.0
1531.6450420088006,4668.282313431502,7915.410769258252,-362.52017077426,-8798.316075288345,-4746.762255792213,-5834.680036441369,-19626.964231486058,0.0
1534.920001667252,4669.008759028468,7916.303940074192,-361.19827796666686,-8796.160556385874,-4744.666281610804,-5831.405076782918,-19615.769823926257,0.0
1536.1108960885072,4668.460947594691,7915.077318820299,-361.60318206989353,-8795.815197003709,-4745.666632924658,-5832.548335427322,-19610.08925753687,0.0
1535.8727172042563,4666.972329568122,7913.5767918495185,-361.65081784674373,-8796.19628321851,-4749.17977146736,-5841.8254029689,-19614.638474226067,0.0
1534.4674617871751,4666.769877516508,7913.040889359953,-361.6389089025312,-8796.446371046974,-4750.096760171727,-5846.422255434944,-19624.49908003406,0.0
1533.9672861302479,4666.59124335332,7913.267159299991,-363.5086131439017,-8797.268088197641,-4751.609196086721,-5845.290905734752,-19639.30189769026,0.0
1533.6338356922965,4666.615061241746,7913.421975574755,-363.47288631126406,-8796.744094652287,-4750.25157644649,-5844.100011313497,-19647.57861391798,0.0
1531.9665835025396,4665.817161979505,7912.0286291018865,-364.4136929040556,-8797.065636146028,-4749.465586128461,-5845.648174061129,-19653.199635586305,0.0
1530.073061372744,4663.494917858057,7910.337559023704,-365.6164962695232,-8798.554254172595,-4752.240370129986,-5849.721032981821,-19653.72362913166,0.0
1530.6089638623087,4664.971626940413,7911.135458285946,-364.16360507559205,-8798.840068833699,-4752.669092121638,-5848.851680054305,-19645.00628196807,0.0
1532.8002095974182,4665.638527816316,7912.624076312513,-363.32997898071346,-8795.672289673159,-4750.882750489755,-5845.636265116916,-19631.13236196045,0.0
1533.3122941985578,4665.793344091079,7912.397806372475,-364.1278782429544,-8797.244270309215,-4755.396240346312,-5844.195282867197,-19621.081213045054,0.0
1532.5501217689543,4664.876355386713,7911.564180277598,-365.36640844105966,-8798.173167957795,-4756.563316879142,-5843.564108823933,-19616.305726415823,0.0
1532.538212824742,4665.043080605688,7911.86190388291,-364.21124085244224,-8796.88700198284,-4752.573820567938,-5841.980219243663,-19616.555814244286,0.0
1531.4425899571872,4666.114885584818,7913.3147950768425,-362.7345317700859,-8795.184022960444,-4751.359108258258,-5841.432407809885,-19624.689623141458,0.0
1529.9182450979808,4664.792992777225,7911.516544500747,-363.56815786496446,-8796.696458875438,-4752.1689164647105,-5840.324875998118,-19636.336570581334,0.0
1528.8464401188512,4665.995796142693,7912.052446990312,-362.31771872264665,-8794.957753020406,-4751.204291983494,-5843.873741373459,-19647.328526089517,0.0
1528.4415360156245,4667.460596280836,7913.564882905306,-360.9005543613531,-8792.766507285296,-4749.441768240037,-5841.7063135267745,-19651.056025628048,0.0
1530.7518711928592,4667.853591439851,7914.37469111176,-360.79337386344014,-8791.670884417741,-4746.619348461662,-5836.025747137387,-19649.102958777188,0.0
1532.4786681036792,4667.293871061861,7915.386951369826,-360.7338291423774,-8791.789973859868,-4745.988174418397,-5837.728726159782,-19642.71976467926,0.0
1531.585497287738,4667.139054787098,7915.446496090888,-361.5674552372559,-8792.635508898959,-4746.928981011188,-5838.27653759356,-19631.775444947925,0.0
1532.1094908330901,4667.281962117649,7915.017774099238,-361.8413609541446,-8794.314670032927,-4748.655777922008,-5839.53888568009,-19622.688920513752,0.0
1532.454850215254,4667.532049946111,7915.005865155025,-362.1033577268207,-8795.660380728947,-4750.799387880267,-5842.027855020513,-19617.210806175975,0.0
1531.0495947981733,4668.341858152565,7915.815673361477,-358.9236696220696,-8793.635860212811,-4749.1916804115735,-5841.277591535122,-19617.008354124362,0.0
1529.8944272095557,4668.341858152565,7915.136863541363,-359.31666478108383,-8792.695053620022,-4746.09535491631,-5836.1924723563625,-19627.643041306175,0.0
1529.3347068315657,4668.22276871044,7914.2913285022705,-360.96009908241587,-8793.457226049624,-4745.58327031517,-5837.061825283879,-19639.48053185345,0.0
1532.0142192793896,4669.092121637957,7915.458405035101,-360.42419659285105,-8791.682793361955,-4743.570658743249,-5835.5136625362475,-19645.73272756504,0.0
1532.1094908330901,4668.675308590517,7915.410769258252,-362.07953983839565,-8793.76685859915,-4743.999380734901,-5836.1329276353,-19647.757248081172,0.0
1531.5974062319503,4668.07986137989,7915.517949756165,-361.38882107406766,-8795.577018119458,-4745.976265474184,-5836.585467515377,-19647.48334236428,0.0
1532.2643071078533,4669.413663131695,7917.078021448007,-359.9359298801365,-8793.48104393805,-4745.44036298462,-5836.335379686913,-19639.551985518723,0.0
1534.0863755723735,4669.651842015946,7917.590106049147,-359.947838824349,-8792.028152744118,-4746.09535491631,-5835.990020304749,-19622.474559517927,0.0
1535.5273578220924,4668.056043491464,7916.875569396395,-359.48339000005956,-8790.896803043926,-4744.594827945529,-5836.204381300576,-19609.993985983172,0.0
1534.5031886198128,4666.114885584818,7914.207965892783,-361.50791051619314,-8793.421499216985,-4747.155250951227,-5840.491601217094,-19613.5309424143,0.0
1534.7175496156387,4667.746410941938,7914.600961051798,-360.65046653288954,-8794.088400092889,-4747.333885114415,-5840.515419105519,-19618.973329919438,0.0
1535.4797220452422,4668.5204923157535,7914.51759844231,-360.1741087643875,-8792.421147903133,-4745.095003602455,-5838.097903430371,-19624.80871258359,0.0
1534.5150975640254,4669.747113569646,7915.0892277645125,-359.95974776856156,-8791.527977087191,-4743.534931910611,-5836.740283790141,-19636.860564126684,0.0
1531.9904013909647,4669.056394805319,7915.506040811952,-359.31666478108383,-8793.06423089061,-4747.131433062802,-5839.63415723379,-19649.72222387624,0.0
1531.0972305750233,4668.63958175788,7915.172590374,-361.46027473934294,-8793.826403320214,-4747.488701389178,-5838.407535979898,-19653.140090865247,0.0
1530.94241430026,4669.3898452432695,7916.4825742373805,-361.17446007824174,-8793.06423089061,-4745.285546709856,-5836.8355553438405,-19649.42450027093,0.0
1533.4790194175334,4670.247289226574,7917.042294615371,-359.126121673683,-8790.896803043926,-4743.225299361085,-5835.037304767745,-19641.898047528597,0.0
1533.3122941985578,4668.853942753704,7915.470313979314,-359.8525672706486,-8791.373160812427,-4744.130379121239,-5836.121018691088,-19630.19155536766,0.0
1534.8366390577644,4670.7474648835005,7917.959283319738,-356.6966970543226,-8787.69329705075,-4741.879588665066,-5836.502104905889,-19617.651437111843,0.0
1536.6467985780719,4671.331003149916,7918.507094753514,-356.660970221685,-8789.05091669098,-4742.308310656719,-5835.751841420499,-19612.328139048834,0.0
1536.0513513674446,4671.8073609184175,7918.638093139853,-356.83960438487327,-8789.836907009008,-4741.808134999792,-5835.608934089948,-19612.47104637938,0.0
1536.4205286380334,4672.700531734359,7919.37644768103,-355.5058026330675,-8788.646012587755,-4741.510411394477,-5833.119964749525,-19619.44968768794,0.0
1536.087078200082,4672.462352850108,7918.721455749341,-356.01788723420725,-8789.527274459482,-4742.725123704157,-5832.548335427322,-19629.34602032857,0.0
1536.5515270243716,4673.4984309966,7920.245800608547,-355.00562697614043,-8786.407131075794,-4738.699900560316,-5833.084237916887,-19641.683686532768,0.0
1534.5031886198128,4673.045891116523,7920.138620110633,-356.6966970543226,-8788.479287368778,-4742.213039103018,-5836.228199189001,-19647.90015541172,0.0
1532.323851828916,4672.855348009122,7919.769442840045,-357.720866256602,-8791.099255095538,-4748.381872205119,-5841.599133028861,-19645.83990806295,0.0
1530.6685085833717,4671.843087751055,7919.221631406268,-357.55414103762627,-8791.075437207115,-4749.358405630549,-5838.681441696786,-19638.956538308095,0.0
1531.8236761719888,4672.9029837859725,7919.114450908353,-356.9110580501486,-8789.181915077317,-4744.392375893915,-5832.548335427322,-19628.226579572587,0.0
1532.454850215254,4673.867608267189,7920.364890050673,-355.56534735413027,-8787.002578286423,-4742.486944819907,-5832.524517538897,-19617.055989901215,0.0
1533.0622063700941,4673.64133832715,7920.495888437011,-355.4105310793671,-8786.978760397997,-4742.879939978921,-5834.501402278181,-19609.43426560518,0.0
1534.0625576839484,4675.165683186357,7920.626886823349,-355.7677994057437,-8787.860022269726,-4741.617591892391,-5834.072680286529,-19614.162116457563,0.0
1534.4436438987502,4675.058502688444,7919.662262342132,-356.3870645047963,-8788.288744261377,-4742.463126931481,-5833.084237916887,-19624.26090114981,0.0
1534.1935560702864,4673.6175204387255,7919.3883566252425,-356.3632466163712,-8788.753193085668,-4742.308310656719,-5832.500699650472,-19636.348479525546,0.0
1533.4671104733209,4672.28371868692,7918.757182581978,-357.28023532073763,-8790.277537944874,-4741.831952888217,-5833.131873693737,-19646.197176389327,0.0
1534.7532764482764,4673.462704163962,7919.721807063195,-356.791968608023,-8788.312562149802,-4740.855419462787,-5831.9290703282695,-19651.282295568086,0.0
1533.490928361746,4673.6532472713625,7918.709546805128,-358.4473118535676,-8788.25301742874,-4740.30760802901,-5830.190364473237,-19646.733078878893,0.0
1533.729107245997,4672.212265021644,7917.9235564871,-361.0434616919037,-8791.14689087239,-4742.046313884042,-5833.14378263795,-19638.56354314908,0.0
1534.4079170661125,4673.605611494513,7919.721807063195,-359.471481055847,-8790.003632227985,-4742.332128545144,-5834.930124269833,-19629.536563435966,0.0
1533.9553771860355,4673.688974104001,7919.662262342132,-358.0900435271911,-8789.086643523618,-4742.332128545144,-5834.036953453891,-19619.973681233292,0.0
1536.325257084333,4673.319796833412,7919.924259114808,-355.7082546846809,-8787.65757021811,-4741.391321952352,-5830.488088078551,-19608.422005347114,0.0
1536.5634359685841,4673.855699322977,7920.233891664335,-355.1128074740534,-8785.58541392513,-4738.795172114016,-5827.749030909665,-19610.72043158014,0.0
1534.098284516586,4671.21191370779,7916.923205173246,-359.5191168326972,-8788.931827248854,-4740.367152750073,-5827.677577244389,-19623.963177544494,0.0
1531.4902257340375,4671.688271476292,7917.351927164897,-358.29249557880445,-8788.336380038227,-4740.795874741724,-5829.797369314224,-19637.76564388684,0.0
1529.5252499389665,4668.865851697918,7914.803413103411,-360.43610553706355,-8792.599782066321,-4744.713917387654,-5838.467080700961,-19648.757599395027,0.0
1531.6569509530132,4670.449741278187,7916.696935233206,-359.233302171596,-8791.551794975616,-4744.189923842301,-5837.954996099821,-19650.127127979467,0.0
1533.2646584217077,4670.854645381413,7916.661208400569,-359.45957211163443,-8790.789622546014,-4742.844213146283,-5833.0246931958245,-19647.923973300145,0.0
1533.3718389196206,4670.759373827714,7916.685026288995,-359.7930225495859,-8791.230253481877,-4742.510762708333,-5834.144133951804,-19639.897344900884,0.0
1534.4555528429628,4671.057097433027,7917.018476726946,-358.94748751049474,-8790.753895713375,-4741.927224441917,-5837.573909885019,-19627.142865649246,0.0
1537.9686913856651,4670.854645381413,7917.018476726946,-359.6620241632478,-8790.813440434438,-4742.058222828256,-5834.287041282355,-19614.69801894713,0.0
1537.659058836139,4668.2584955430775,7914.541416330734,-361.94854145205755,-8793.445317105412,-4746.273989079497,-5835.156394209872,-19609.874896541045,0.0
1536.253803419058,4668.615763869454,7914.398509000183,-361.7699072888693,-8793.802585431788,-4748.52477953567,-5835.763750364711,-19613.221309864774,0.0
1536.861159573898,4670.021019286535,7916.030034357304,-359.01894117577,-8790.622897327037,-4744.249468563364,-5834.144133951804,-19622.891372565366,0.0
1536.4681644148836,4671.378638926766,7917.435289774386,-358.2567687461668,-8787.895749102365,-4743.106209918959,-5834.989668990896,-19634.39541267469,0.0
1534.2292829029243,4672.819621176484,7918.959634633592,-356.62524338904734,-8786.550038406345,-4742.68939687152,-5835.716114587861,-19644.70855836276,0.0
1533.074115314307,4672.950619562823,7919.483628178944,-356.83960438487327,-8787.717114939174,-4743.844564460138,-5836.025747137387,-19650.817846743797,0.0
1532.752573820568,4671.521546257317,7918.947725689379,-357.482687372351,-8789.527274459482,-4745.261728821431,-5836.085291858451,-19650.674939413246,0.0
1532.3595786615535,4670.69982910665,7918.388005311389,-358.3639492440798,-8788.884191472005,-4745.154548323519,-5835.942384527899,-19644.922919358585,0.0
1533.8243787996973,4672.176538189006,7919.18590457363,-358.0304988061284,-8787.860022269726,-4742.629852150458,-5834.298950226567,-19629.87001387392,0.0
1534.920001667252,4672.438534961682,7919.721807063195,-356.3870645047963,-8785.073329323988,-4739.223894105668,-5831.047808456541,-19621.962474916785,0.0
1534.5627333408756,4670.783191716138,7918.316551646114,-358.29249557880445,-8786.502402629494,-4737.640004525399,-5830.190364473237,-19619.09241936156,0.0
1534.4555528429628,4670.818918548776,7916.363484795255,-360.9720080266284,-8790.134630614322,-4739.4501640457065,-5830.61908646489,-19617.73479972133,0.0
1534.5389154524505,4671.140460042515,7916.423029516319,-360.6861933655272,-8790.158448502749,-4739.426346157281,-5829.4758278204845,-19624.534806866697,0.0
1530.0254255958937,4671.092824265665,7916.99465883852,-358.9832143431324,-8791.111164039752,-4741.796226055579,-5830.916810070203,-19634.931315164253,0.0
1528.7630775093633,4671.6168178110165,7917.935465431313,-357.26832637652507,-8789.027098802557,-4741.903406553492,-5829.380556266784,-19642.541130516074,0.0
1531.1448663518736,4673.6532472713625,7919.6503533979185,-355.01753592035294,-8785.299599264028,-4740.569604801686,-5828.249206566592,-19647.388070810583,0.0
1532.9669348163939,4673.772336713489,7918.507094753514,-356.0059782899947,-8784.132522731197,-4741.23650567759,-5832.214884989371,-19646.733078878893,0.0
1532.1571266099404,4671.592999922591,7916.101488022579,-359.233302171596,-8785.859319642017,-4741.593774003965,-5833.536777796964,-19642.48158579501,0.0
1533.4194746964708,4670.259198170786,7915.6132213098645,-359.5429347211223,-8787.478936054924,-4742.189221214593,-5832.464972817835,-19630.072465925532,0.0
1535.670265152643,4671.045188488814,7916.649299456357,-358.780762291519,-8787.955293823426,-4745.428454040407,-5832.667424869448,-19621.50993503671,0.0
1535.8965350926812,4672.533806515384,7918.042645929225,-358.38776713250485,-8787.752841771813,-4745.845267087846,-5835.692296699436,-19616.579632132714,0.0
1535.7059919852804,4672.819621176484,7918.447550032452,-357.3397800418004,-8786.323768466307,-4743.7135660737995,-5836.097200802663,-19617.091716733852,0.0
1533.9672861302479,4671.342912094128,7916.423029516319,-360.88864541714054,-8789.64636390161,-4748.5843242567325,-5837.776361936632,-19625.33270612894,0.0
1532.776391708993,4670.60455755295,7916.780297842695,-362.12717561524585,-8790.992074597625,-4748.643868977795,-5835.7042056436485,-19637.039198289876,0.0
1533.359929975408,4669.866203011772,7915.648948142503,-362.3415366110717,-8790.551443661763,-4748.381872205119,-5838.050267653521,-19649.329228717226,0.0
1532.2523981636407,4668.472856538903,7914.017422785382,-363.11561798488754,-8791.885245413567,-4748.536688479882,-5839.12207263265,-19655.105066660315,0.0
1530.0135166516814,4665.93625142163,7911.266456672283,-366.1404898148754,-8795.100660350956,-4752.645274233212,-5843.147295776493,-19656.141144806807,0.0
1531.8236761719888,4668.306131319928,7914.0650585622325,-363.11561798488754,-8790.908711988139,-4747.810242882917,-5841.622950917286,-19645.232551908113,0.0
1533.9672861302479,4668.889669586343,7914.434235832821,-364.11596929874185,-8791.611339696678,-4745.761904478358,-5837.978813988246,-19629.51274554754,0.0
1533.8481966881227,4667.1628726755225,7912.302534818776,-366.2238524243633,-8793.67158704545,-4749.0011373041725,-5838.443262812535,-19619.87840967959,0.0
1534.0387397955235,4667.448687336624,7912.219172209288,-367.17656796136737,-8795.791379115284,-4753.4550824396665,-5840.479692272881,-19618.270702210895,0.0
1533.7410161902096,4668.341858152565,7912.814619419915,-364.96150433783293,-8793.731131766513,-4750.71602527078,-5839.407887293752,-19618.58033476042,0.0
1532.5143949363169,4666.233975026944,7911.11164039752,-367.31947529191797,-8795.029206685682,-4751.478197700383,-5840.015243448592,-19627.619223417747,0.0
1532.1809444983655,4667.329597894498,7912.254899041925,-367.2956574034929,-8794.290852144502,-4749.513221905312,-5838.085994486159,-19641.493143425367,0.0
1531.9904013909647,4666.055340863755,7911.778541273423,-367.3909289571933,-8794.576666805604,-4750.025306506452,-5839.44361412639,-19652.675642040955,0.0
1529.3347068315657,4666.233975026944,7911.230729839645,-367.9387403909706,-8795.934286445834,-4751.633013975145,-5841.670586694137,-19659.80909962427,0.0
1528.9655295609766,4667.305780006073,7912.528804758814,-366.3667597549139,-8795.076842462531,-4751.895010747822,-5840.265331277055,-19655.49806181933,0.0
1531.6450420088006,4669.985292453897,7915.148772485576,-362.90125698906166,-8792.635508898959,-4748.5843242567325,-5837.169005781792,-19645.244460852326,0.0
1532.3119428847035,4670.902281158264,7916.018125413092,-362.3415366110717,-8792.302058461008,-4747.643517663942,-5837.15709683758,-19632.740069429146,0.0
1533.5028373059588,4671.295276317278,7916.101488022579,-361.05537063611627,-8792.111515353605,-4748.727231587283,-5839.038710023163,-19623.570182385483,0.0
1534.4436438987502,4672.926801674397,7917.840193877611,-358.9593964547073,-8788.95564513728,-4746.917072066975,-5839.503158847452,-19619.40205191109,0.0
1533.336112086983,4674.987049023169,7919.852805449534,-356.4823360584967,-8785.073329323988,-4744.332831172852,-5836.9903716186045,-19618.58033476042,0.0
1532.6096664900174,4676.666210157138,7920.7102494328365,-355.55343840991776,-8783.251260859468,-4743.618294520099,-5834.739581162432,-19623.272458780168,0.0
1530.763780137072,4676.154125555999,7920.35298110646,-356.63715233325985,-8785.87122858623,-4746.333533800561,-5836.1329276353,-19637.39646661625,0.0
1529.3227978873533,4677.678470415205,7922.758587837396,-354.70790337082667,-8784.811332551313,-4744.5471921686785,-5836.025747137387,-19649.174412442462,0.0
1529.8944272095557,4678.083374518433,7923.032493554284,-355.92261568050685,-8785.275781375602,-4743.20148147266,-5835.4422088709725,-19653.151999809455,0.0
1530.0611524285314,4678.011920853157,7924.080480644988,-354.26727243496225,-8783.191716138404,-4742.927575755772,-5835.013486879321,-19648.40033106865,0.0
1529.6324304368798,4678.416824956383,7924.55683841349,-354.3506350444501,-8782.227091657189,-4742.189221214593,-5835.037304767745,-19640.42133844624,0.0
1531.585497287738,4678.833638003823,7924.985560405142,-352.40947713780434,-8781.071924068572,-4739.366801436218,-5832.298247598858,-19629.155477221168,0.0
1532.5620307131671,4675.939764560173,7922.877677279521,-354.0529114391363,-8783.513257632145,-4741.903406553492,-5832.07197765882,-19619.533050297425,0.0
1531.7045867298634,4673.6532472713625,7919.031088298866,-357.92331830821536,-8786.216587968394,-4744.189923842301,-5831.821889830357,-19618.90187625416,0.0
1532.0261282236022,4671.033279544602,7914.898684657112,-362.0557219499705,-8789.836907009008,-4746.940889955401,-5834.584764887669,-19624.713441029886,0.0
1531.6212241203757,4669.127848470594,7913.410066630542,-363.1989805943754,-8790.813440434438,-4746.00008336261,-5836.478287017464,-19632.85915887127,0.0
1530.311240256995,4669.068303749531,7913.600609737944,-361.38882107406766,-8788.53883208984,-4743.106209918959,-5834.953942158258,-19644.54183314378,0.0
1529.3704336642033,4669.330300522207,7912.552622647239,-362.865530156424,-8791.313616091365,-4744.332831172852,-5834.298950226567,-19652.50891682198,0.0
1526.0597471731144,4666.888966958634,7910.50428424268,-366.0928540380252,-8794.124126925528,-4747.21479567229,-5839.0625279115875,-19657.391583949124,0.0
1526.4051065552783,4665.817161979505,7911.183094062796,-363.580066809177,-8791.361251868215,-4745.952447585759,-5837.490547275531,-19655.259882935075,0.0
1527.1434610964566,4665.340804211003,7911.397455058622,-362.9369838216993,-8790.44426316385,-4746.214444358435,-5840.181968667568,-19648.17406112861,0.0
1528.9774385051894,4666.138703473243,7911.183094062796,-363.5086131439017,-8790.348991610148,-4748.28660065142,-5842.62330223114,-19637.71800810999,0.0
1531.418772068762,4666.877058014421,7910.587646852167,-364.85432383991997,-8792.754598341084,-4750.108669115939,-5842.027855020513,-19630.7036399688,0.0
1532.9550258721813,4665.37653104364,7909.313389821425,-366.5215760296771,-8794.802936745642,-4750.95420415503,-5841.587224084649,-19625.53515818055,0.0
1533.5266551943837,4665.054989549902,7908.979939383474,-367.0574785192419,-8793.4334081612,-4748.489052703033,-5838.943438469462,-19622.510286350564,0.0
1533.145568979582,4667.353415782924,7911.635633942872,-366.0928540380252,-8793.016595113759,-4748.596233200946,-5836.621194348016,-19625.427977682637,0.0
1528.667805955663,4668.12749715674,7912.564531591452,-365.54504260424795,-8795.088751406744,-4749.73949184535,-5834.4180396686925,-19637.706099165778,0.0
1527.0124627101184,4667.210508452373,7911.01636884382,-366.283397145426,-8797.137089811302,-4753.383628774391,-5838.967256357888,-19649.019596167702,0.0
1526.357470778428,4667.817864607214,7911.1592761743705,-366.3429418664888,-8793.969310650764,-4751.990282301523,-5841.40858992146,-19655.12888454874,0.0
1529.0250742820394,4670.473559166612,7913.600609737944,-362.3415366110717,-8790.182266391173,-4748.084148599805,-5838.848166915762,-19654.688253612872,0.0
1531.1686842402987,4669.85429406756,7913.0885251368045,-362.4010813321345,-8789.955996451134,-4746.273989079497,-5836.287743910064,-19647.066529316842,0.0
1533.2170226448575,4669.711386737009,7913.374339797904,-362.4010813321345,-8790.075085893259,-4744.678190555016,-5834.1560428960165,-19634.1215069578,0.0
1534.3960081219,4670.69982910665,7914.14842117172,-362.12717561524585,-8789.420093961571,-4743.403933524273,-5832.060068714608,-19622.59364896005,0.0
1534.3602812892623,4672.271809742708,7915.73231075199,-362.52017077426,-8788.53883208984,-4743.582567687462,-5832.417337040984,-19614.28120589969,0.0
1533.1693868680072,4670.056746119173,7914.839139936049,-363.32997898071346,-8790.539534717549,-4747.512519277603,-5834.132225007592,-19613.67384974485,0.0
1532.1690355541527,4668.913487474767,7913.017071471528,-363.98497091240375,-8791.277889258727,-4746.1668085815845,-5834.048862398104,-19621.974383860997,0.0
1534.1697381818615,4670.4854681108245,7915.3512245371885,-362.0199951173329,-8788.800828862517,-4744.821097885567,-5834.834852716132,-19633.33551663977,0.0
1534.8485480019767,4671.843087751055,7917.304291388047,-359.69775099588543,-8785.45441553879,-4743.701657129587,-5836.728374845928,-19644.11311115213,0.0
1532.9192990395436,4671.688271476292,7916.196759576279,-359.9716567127741,-8785.668776534616,-4744.32092222864,-5838.252719705134,-19649.5912254899,0.0
1534.288827623987,4670.14010872866,7914.243692725422,-362.99652854276206,-8787.205030338035,-4746.631257405875,-5838.205083928285,-19647.078438261055,0.0
1535.1581805515032,4669.723295681221,7913.374339797904,-365.437862106335,-8789.396276073145,-4746.821800513276,-5835.716114587861,-19640.51660999994,0.0
1535.8369903716186,4668.9373053631925,7913.612518682156,-365.83085726534915,-8790.12272167011,-4744.571010057103,-5832.5364264831105,-19630.57264158246,0.0
1536.0989871442948,4669.032576916894,7913.040889359953,-365.9023109306244,-8791.277889258727,-4745.9405386415465,-5833.2866899685005,-19620.83112521659,0.0
1536.5753449127967,4668.734853311579,7912.421624260901,-365.914219874837,-8791.909063301993,-4746.535985852174,-5832.464972817835,-19614.495566895515,0.0
1535.3606326031165,4668.341858152565,7912.207263265075,-364.6518717883066,-8790.9682567092,-4745.904811808909,-5833.643958294877,-19615.25773932512,0.0
1535.3844504915414,4668.7110354231545,7913.11234302523,-363.7706099165778,-8789.24145979838,-4743.642112408525,-5832.905603753699,-19625.892426506925,0.0
1535.348723658904,4668.353767096778,7913.362430853693,-364.2469676850799,-8790.289446889086,-4743.582567687462,-5831.678982499806,-19640.13552378514,0.0
1535.432086268392,4669.246937912719,7914.851048880261,-362.04381300575795,-8787.59802549705,-4742.213039103018,-5830.035548198474,-19647.542887085343,0.0
1536.6825254107096,4669.711386737009,7915.529858700377,-360.98391697084094,-8785.50205131564,-4742.903757867346,-5830.90490112599,-19649.067231944555,0.0
1535.932261925319,4668.282313431502,7913.791152845344,-362.6392602163855,-8788.145836930827,-4747.572063998666,-5831.940979272483,-19647.018893539993,0.0
1534.7175496156387,4667.472505225049,7912.814619419915,-363.37761475756366,-8787.800477548662,-4747.572063998666,-5834.82294377192,-19640.13552378514,0.0
1535.6345383200053,4668.591945981029,7913.886424399044,-362.52017077426,-8786.311859522093,-4744.940187327692,-5838.407535979898,-19630.715548913013,0.0
1537.8019661666895,4670.842736437201,7914.66050577286,-361.10300641296647,-8786.240405856819,-4744.189923842301,-5837.81208876927,-19620.42622111337,0.0
1536.2657123632703,4669.187393191656,7912.766983643064,-364.75905228621957,-8791.28979820294,-4748.703413698858,-5838.109812374583,-19615.769823926257,0.0
1535.1224537188655,4667.353415782924,7910.337559023704,-367.2956574034929,-8793.135684555884,-4747.155250951227,-5834.77530799507,-19619.068601473136,0.0
1533.705289357572,4668.163223989377,7910.944915178546,-366.45012236440175,-8793.540588659112,-4747.274340393353,-5834.8705795487695,-19624.46335320142,0.0
1530.6327817507338,4667.853591439851,7910.611464740593,-367.79583306042,-8796.13673849745,-4750.739843159205,-5837.7406351039945,-19638.539725260656,0.0
1531.263955793999,4670.437832333974,7914.386600055973,-364.1993319082297,-8791.861427525142,-4747.655426608154,-5834.3823128360555,-19643.79156965839,0.0
1530.6089638623087,4669.628024127521,7914.386600055973,-363.5562489207519,-8789.301004519442,-4746.452623242687,-5834.549038055031,-19648.495602622348,0.0
1529.965880874831,4668.83012486528,7913.743517068495,-364.3898750156305,-8790.515716829124,-4749.417950351612,-5838.931529525249,-19652.47318998934,0.0
1532.0737640004525,4669.604206239096,7914.458053721247,-363.13943587331266,-8788.574558922479,-4747.464883500753,-5837.573909885019,-19645.315914517596,0.0
1535.7179009294932,4669.413663131695,7913.648245514793,-364.6637807325192,-8790.468081052273,-4750.989930987667,-5839.0268010789505,-19637.20592350885,0.0
1534.7413675040639,4668.853942753704,7911.86190388291,-366.53348497388964,-8793.016595113759,-4752.6214563447875,-5837.681090382932,-19631.525357119463,0.0
1533.9911040186732,4669.485116796971,7912.576440535665,-365.83085726534915,-8790.95634776499,-4749.727582901138,-5838.645714864148,-19623.52254660863,0.0
1534.634187006151,4671.62872675523,7914.51759844231,-363.06798220803734,-8787.717114939174,-4746.881345234338,-5840.015243448592,-19621.52184398092,0.0
1534.812821169339,4669.115939526381,7912.016720157674,-364.5566002346062,-8790.610988382825,-4749.120226746298,-5841.420498865673,-19630.965636741475,0.0
1533.860105632335,4668.377584985203,7911.718996552359,-364.7709612304321,-8790.563352605976,-4749.310769853699,-5838.085994486159,-19643.160395615127,0.0
1532.1213997773027,4669.723295681221,7912.2906258745625,-364.1755140198046,-8788.76510202988,-4748.441416926182,-5836.978462674391,-19652.66373309674,0.0
1532.776391708993,4671.890723527906,7914.910593601323,-362.22244716894625,-8786.43094896422,-4745.142639379305,-5836.263926021638,-19655.902965922556,0.0
1531.7641314509262,4672.640987013297,7916.577845791081,-361.6746357351689,-8787.609934441261,-4745.53563453832,-5834.096498174954,-19652.84236725993,0.0
1533.9315592976104,4672.93871061861,7917.423380830172,-361.03155274769114,-8787.526571831773,-4747.810242882917,-5837.419093610256,-19644.267927426892,0.0
1535.5511757105173,4673.462704163962,7917.399562941748,-360.769555975015,-8787.621843385476,-4747.953150213468,-5835.418390982547,-19632.75197837336,0.0
1536.706343299135,4670.628375441375,7914.612869996011,-363.0560732638248,-8789.37245818472,-4746.714620015363,-5835.632751978374,-19621.843385474658,0.0
1537.0517026812988,4669.866203011772,7913.660154459006,-363.8301546376406,-8791.885245413567,-4749.024955192597,-5834.894397437195,-19617.615710279206,0.0
1537.659058836139,4670.735555939288,7915.315497704551,-362.07953983839565,-8788.872282527793,-4745.547543482533,-5834.501402278181,-19619.890318623802,0.0
1535.241543160991,4669.782840402284,7914.553325274947,-362.758349658511,-8786.645309960044,-4743.165754640022,-5833.882137179128,-19632.001714887963,0.0
1534.1101934607987,4669.366027354845,7913.505338184243,-363.23470742701306,-8788.372106870866,-4747.560155054453,-5836.918917953329,-19645.673182843973,0.0
1533.5028373059588,4670.461650222399,7913.374339797904,-363.4609773670515,-8789.181915077317,-4748.560506368308,-5836.525922794314,-19651.699108615525,0.0
1533.490928361746,4670.425923389762,7912.707438922002,-365.54504260424795,-8788.896100416217,-4745.178366211943,-5834.322768114993,-19656.879499347986,0.0
1532.6453933226549,4669.270755801144,7912.159627488225,-367.2003858497925,-8791.027801430264,-4747.810242882917,-5835.882839806836,-19652.60418837568,0.0
1531.478316789825,4666.650788074383,7910.420921633193,-368.7366396532115,-8794.23130742344,-4751.0375667645185,-5837.049916339667,-19647.221345591606,0.0
1533.0502974258816,4667.3176889502865,7910.944915178546,-367.1051142960921,-8793.195229276947,-4751.811648138335,-5838.133630263009,-19635.324310323267,0.0
1534.6937317272136,4668.722944367367,7912.909890973615,-365.5212247158228,-8791.170708760816,-4749.632311347437,-5837.645363550294,-19624.582442643547,0.0
1536.194258697995,4669.282664745358,7912.993253583102,-364.96150433783293,-8791.718520194592,-4749.394132463186,-5836.502104905889,-19617.532347669716,0.0
1538.290232879404,4668.2584955430775,7911.599907110234,-365.3783173852722,-8791.206435593453,-4747.298158281777,-5834.656218552944,-19618.223066434046,0.0
1537.0040669044486,4665.316986322578,7907.741409185369,-370.10616823765486,-8793.39768132856,-4749.715673956925,-5837.276186279705,-19625.5827939574,0.0
1536.0037155905943,4665.316986322578,7909.313389821425,-369.58217469230266,-8793.707313878089,-4754.657885805134,-5843.373565716532,-19637.0630161783,0.0
1535.7893545947684,4666.86514907021,7910.718645238506,-367.3432931803431,-8792.82605200636,-4753.085905169078,-5841.384772033035,-19645.45882184815,0.0
1536.3609839169708,4666.067249807968,7909.313389821425,-368.98672748167513,-8794.159853758165,-4751.93073758046,-5839.395978349539,-19649.603134434114,0.0
1537.659058836139,4667.067601121822,7909.670658147803,-368.6413680995111,-8791.99242591148,-4750.108669115939,-5838.8005311389115,-19647.61434075062,0.0
1538.2783239351916,4667.829773551425,7910.218469581579,-368.62945915529855,-8791.789973859868,-4748.739140531497,-5837.716817215569,-19640.218886394625,0.0
1538.5522296520803,4666.555516520682,7909.24193615615,-369.9394430186791,-8794.13603586974,-4749.870490231689,-5838.526625422023,-19629.16738616538,0.0
1540.6124770008514,4667.448687336624,7909.968381753115,-368.5699144342358,-8792.980868281124,-4749.4894040168865,-5838.752895362061,-19618.75896892361,0.0
1541.3151047093918,4667.901227216701,7911.516544500747,-366.35485081070135,-8790.039359060624,-4748.215146986144,-5836.371106519551,-19612.22095855092,0.0
1538.6236833173555,4667.460596280836,7911.695178663936,-365.92612881904955,-8791.492250254552,-4749.441768240037,-5836.740283790141,-19616.84162890539,0.0
1538.1115987162157,4667.996498770402,7912.302534818776,-366.1285808706629,-8791.94479013463,-4750.465937442316,-5836.275834965851,-19626.344966387005,0.0
1538.7070459268434,4667.901227216701,7912.552622647239,-365.04486694732077,-8789.717817566883,-4749.382223518974,-5836.954644785966,-19638.408726874317,0.0
1539.219130527983,4670.187744505511,7914.720050493924,-363.09180009646246,-8788.455469480352,-4747.9055144366175,-5840.277240221268,-19646.31626583145,0.0
1536.384801805396,4668.591945981029,7913.707790235857,-366.3667597549139,-8791.468432366128,-4750.692207382354,-5841.563406196224,-19651.711017559737,0.0
1533.1336600353695,4667.520141001899,7911.635633942872,-368.2245550520719,-8793.48104393805,-4751.0732935971555,-5840.670235380282,-19651.842015946077,0.0
1534.7175496156387,4666.7460596280835,7910.551920019531,-368.4031892152601,-8792.278240572581,-4748.798685252559,-5838.216992872497,-19644.16074692898,0.0
1537.099338458149,4667.031874289185,7911.302183504921,-366.390577643339,-8789.086643523618,-4745.904811808909,-5835.013486879321,-19629.786651264432,0.0
1538.3259597120418,4669.99720139811,7913.541065016881,-362.6392602163855,-8785.371052929302,-4744.32092222864,-5833.501050964327,-19612.17332277407,0.0
1538.4926849310173,4672.2241739658575,7915.5774944772265,-361.8175430657195,-8785.918864363079,-4745.833358143634,-5833.036602140037,-19606.290304333066,0.0
1538.9214069226691,4672.831530120697,7916.399211627893,-361.698453623594,-8785.87122858623,-4746.178717525798,-5831.2502605081545,-19609.04127044617,0.0
1538.5641385962927,4673.1649805586485,7915.720401807777,-363.9135172471284,-8788.002929600276,-4746.690802126937,-5831.83379877457,-19615.805550758898,0.0
1534.3007365681997,4670.402105501336,7913.874515454833,-366.70021019286537,-8789.979814339558,-4749.417950351612,-5833.1795094705885,-19631.96598805533,0.0
1530.7518711928592,4668.603854925241,7912.016720157674,-367.3432931803431,-8790.003632227985,-4749.799036566413,-5835.6684788110115,-19644.244109538467,0.0
1534.7890032809141,4670.223471338149,7912.9337088620405,-366.0094914285374,-8787.943384879212,-4747.40533877969,-5836.049565025813,-19644.351290036382,0.0
1538.6713190942057,4671.378638926766,7915.0892277645125,-363.5324310323268,-8784.8946951608,-4744.285195396003,-5832.917512697912,-19638.480180539595,0.0
1538.290232879404,4669.008759028468,7913.0885251368045,-365.0805937799584,-8786.466675796857,-4745.4879987614695,-5833.715411960153,-19631.346722956274,0.0
1537.2422457886996,4668.913487474767,7912.076264878738,-367.18847690557993,-8789.396276073145,-4749.572766626375,-5838.431353868323,-19619.3186893016,0.0
1540.017029790224,4670.628375441375,7913.874515454833,-365.8546751537742,-8787.59802549705,-4750.549300051804,-5837.538183052381,-19607.56456136381,0.0
1541.7080998684062,4673.176889502862,7917.161384057496,-363.18707165016286,-8783.441803966869,-4746.857527345913,-5831.190715787092,-19599.56175085298,0.0
1540.0765745112867,4674.010515597739,7917.340018220684,-362.46062605319725,-8782.977355142579,-4744.511465336041,-5832.131522379883,-19602.586622682968,0.0
1539.826486682823,4673.224525279711,7916.923205173246,-362.2105382247337,-8784.10870484277,-4745.618997147808,-5833.322416801138,-19612.673498430995,0.0
1538.5760475405052,4673.9986066535275,7917.637741825998,-360.93628119399074,-8783.144080361555,-4744.666281610804,-5832.369701264134,-19623.498728720206,0.0
1536.9087953507483,4673.891426155614,7917.887829654462,-360.1860177086,-8781.726916000262,-4743.7135660737995,-5830.9882637354785,-19633.716602854573,0.0
1537.6114230592887,4672.807712232272,7916.839842563757,-361.24591374351706,-8783.036899863642,-4744.332831172852,-5830.273727082726,-19638.206274822704,0.0
1538.0401450509405,4672.998255339672,7917.089930392221,-362.41299027634705,-8783.155989305767,-4742.296401712506,-5829.118559494108,-19638.43254476274,0.0
1541.8271893105316,4675.022775855807,7918.76909152619,-360.531377090764,-8781.238649287548,-4739.866977093146,-5827.272673141162,-19629.64374393388,0.0
1544.2447049856794,4675.808766173835,7919.662262342132,-360.1741087643875,-8781.417283450735,-4741.498502450265,-5831.524166225044,-19615.376828767246,0.0
1545.6499604027604,4675.249045795845,7918.447550032452,-361.4960015719806,-8781.274376120184,-4740.986417849125,-5830.821538516503,-19607.13583937216,0.0
1545.530870960635,4674.510691254667,7916.161032743643,-364.5566002346062,-8784.346883727023,-4741.081689402826,-5829.618735151034,-19601.752996588086,0.0
1544.0541618782786,4671.497728368891,7912.4454421493265,-367.33138423613053,-8788.217290596102,-4745.0354588813925,-5829.416283099422,-19604.611143199098,0.0
1541.684281979981,4671.759725141567,7913.981695952745,-364.75905228621957,-8787.121667728548,-4746.3930785216235,-5830.190364473237,-19615.11483199457,0.0
1540.2194818418373,4672.5218975711705,7915.386951369826,-363.3895237017762,-8785.752139144104,-4746.202535414223,-5831.4408036155555,-19630.29873586557,0.0
1537.6709677803515,4671.521546257317,7914.434235832821,-364.8662327841325,-8785.120965100838,-4743.439660356911,-5829.487736764698,-19635.919757533895,0.0
1536.325257084333,4672.164629244794,7915.196408262425,-364.35414818299284,-8785.513960259852,-4745.642815036233,-5830.416634413276,-19639.12326352707,0.0
1538.3021418236165,4673.4984309966,7916.208668520491,-363.68724730709,-8783.382259245807,-4743.820746571712,-5830.10700186375,-19639.671074960846,0.0
1540.2790265629,4674.844141692618,7916.99465883852,-364.1040603545293,-8781.750733888688,-4740.938782072275,-5830.452361245913,-19629.63183498967,0.0
1542.9942658433617,4675.189501074782,7917.9235564871,-364.0683335218916,-8782.36999898774,-4741.022144681763,-5831.536075169255,-19615.603098707285,0.0
1545.2212384111085,4675.070411632657,7918.852454135677,-363.30616109228833,-8785.394870817727,-4744.404284838128,-5828.249206566592,-19608.993634669318,0.0
1545.8047766775235,4676.39230444025,7919.8766233379565,-360.2098355970251,-8783.858617014308,-4744.404284838128,-5826.8320422052975,-19606.873842599485,0.0
1547.8173882494448,4676.654301212926,7919.721807063195,-359.7453867727357,-8783.108353528918,-4743.237208305298,-5828.368296008717,-19609.767716043134,0.0
1545.5785067374852,4676.4875759939505,7919.233540350481,-360.6742844213146,-8784.013433289072,-4744.118470177026,-5828.344478120292,-19613.57857819115,0.0
1544.1851602646166,4676.356577607612,7918.959634633592,-359.8525672706486,-8782.250909545613,-4744.392375893915,-5831.83379877457,-19622.295925354738,0.0
1544.4590659815053,4675.213318963208,7918.185553259776,-360.6266486444644,-8782.41763476459,-4743.558749799036,-5833.14378263795,-19633.668967077723,0.0
1542.113003971633,4676.475667049738,7919.614626565282,-360.6147397002519,-8783.489439743718,-4741.784317111366,-5829.868822979499,-19639.968798566162,0.0
1542.8275406243858,4678.857455892247,7920.793612042324,-358.28058663459194,-8782.19136482455,-4743.820746571712,-5831.000172679691,-19640.064070119864,0.0
1541.660464091556,4676.3446686634,7918.054554873438,-360.6266486444644,-8784.263521117535,-4748.131784376656,-5835.263574707784,-19636.157936418145,0.0
1543.2919894486754,4676.797208543477,7918.1140995945,-360.6742844213146,-8783.453712911081,-4745.559452426745,-5831.667073555594,-19623.34391244544,0.0
1544.9354237500074,4677.071114260365,7919.173995629418,-359.34048266950896,-8781.500646060224,-4741.319868287077,-5827.510852025414,-19614.45984006288,0.0
1546.4478596650013,4677.309293144616,7920.007621724295,-358.57831023990565,-8780.821836240108,-4739.795523427871,-5824.700341191252,-19608.57682162188,0.0
1543.6254398866267,4676.535211770801,7917.7687402123365,-359.72156888431056,-8782.905901477305,-4741.581865059753,-5823.961986650073,-19610.422707974823,0.0
1541.2674689325418,4677.928558243669,7918.34036953454,-358.7450354588814,-8781.20292245491,-4739.74788765102,-5822.139918185553,-19621.402754538794,0.0
1540.8863827177402,4679.714899875551,7921.222334033976,-356.54188077955945,-8778.344775843896,-4738.795172114016,-5823.259358941533,-19630.29873586557,0.0
1542.4702722980094,4680.179348699841,7921.924961742516,-355.9345246247194,-8777.022883036305,-4737.187464645322,-5823.616627267909,-19635.598216040155,0.0
1545.530870960635,4680.31034708618,7922.198867459405,-354.5530870960635,-8774.95072674332,-4734.32931803431,-5819.23413579769,-19635.836394924405,0.0
1545.078331080558,4683.061313199278,7924.640201022978,-352.79056335260594,-8773.902739652614,-4733.531418772068,-5819.198408965053,-19631.32290506785,0.0
1542.4345454653717,4681.298789455821,7922.044051184641,-353.5289178937841,-8774.331461644268,-4733.829142377383,-5823.580900435271,-19628.571938954752,0.0
1544.5900643678435,4680.584252803067,7921.37715030874,-353.6360983916971,-8774.80781941277,-4733.233695166755,-5825.986507166207,-19617.74670866554,0.0
1547.1504873735419,4680.441345472517,7921.186607201338,-355.7082546846809,-8776.165439053002,-4735.508303511352,-5822.437641790867,-19607.60028819645,0.0
1549.3060062760137,4680.429436528305,7922.07977801728,-355.4462579120048,-8776.0701674993,-4736.270475940955,-5819.793856175681,-19602.491351129265,0.0
1550.2825397014426,4681.441696786372,7923.866119649162,-353.9933667180736,-8775.18890562757,-4735.234397794464,-5822.925908503581,-19600.288196449943,0.0
1547.7221166957443,4681.1320642368455,7923.115856163771,-354.36254398866265,-8776.0701674993,-4735.2582156828885,-5821.47301730965,-19613.280854585835,0.0
1543.804074049815,4680.060259257716,7921.61532919299,-354.87462858980234,-8775.129360906509,-4733.055061003567,-5819.793856175681,-19629.131659332743,0.0
1541.600919370493,4680.5247080820045,7921.817781244603,-354.7436302034643,-8774.34337058848,-4733.055061003567,-5819.948672450443,-19637.098743010934,0.0
1540.410024949238,4680.084077146141,7920.9365193728745,-356.5299718353469,-8776.129712220363,-4734.638950583836,-5821.151475815911,-19642.42204107395,0.0
1540.7434753871894,4680.167439755628,7921.269969810827,-356.20843034160805,-8776.427435825677,-4736.746833709457,-5822.544822288779,-19640.730970995766,0.0
1543.756438272965,4680.3341649746035,7922.091686961492,-355.7201636288935,-8775.903442280325,-4737.4851882506355,-5824.557433860701,-19629.66756182231,0.0
1548.710559065386,4679.452903102875,7920.686431544411,-357.2445084881,-8779.118857217713,-4739.866977093146,-5824.5693428049135,-19615.412555599883,0.0
1550.1634502593172,4676.9401158740275,7918.06646381765,-357.7923199218773,-8779.261764548262,-4739.7121608183825,-5822.73536539618,-19607.040567818458,0.0
1549.5799119929022,4677.285475256191,7917.959283319738,-358.62594601675585,-8778.594863672362,-4737.699549246461,-5821.163384760124,-19604.96841152548,0.0
1550.7112616930945,4679.071816888074,7919.936168059021,-358.28058663459194,-8779.452307655665,-4740.224245419522,-5821.735014082326,-19606.39748483098,0.0
1552.0688813333254,4679.369540493387,7920.817429930749,-357.006329603849,-8779.892938591529,-4741.486593506053,-5824.819430633377,-19613.638122912213,0.0
1548.5319249021977,4679.238542107049,7919.626535509494,-357.41123370707567,-8777.606421302718,-4738.890443667716,-5826.498591767347,-19628.107490130464,0.0
1545.2450562995339,4678.595459119572,7918.57854841879,-359.76920466116076,-8778.344775843896,-4737.842456577012,-5823.009271113069,-19634.812225722126,0.0
1547.043306875629,4678.250099737407,7918.804818358828,-361.591273125681,-8779.952483312592,-4737.568550860124,-5820.603664382134,-19635.324310323267,0.0
1547.2457589272424,4678.142919239495,7919.566990788431,-359.0070322315575,-8780.035845922079,-4737.97345496335,-5819.770038287255,-19628.6195747316,0.0
1546.1977718365379,4679.607719377639,7920.257709552759,-356.63715233325985,-8779.392762934602,-4737.985363907563,-5819.865309840956,-19620.75967155132,0.0
1548.6748322327483,4681.15588212527,7920.4482526601605,-356.0536140668449,-8778.189959569134,-4737.723367134887,-5821.639742528626,-19614.51938478394,0.0
1549.1273721128252,4679.702990931339,7919.519355011581,-357.6970483681769,-8778.666317337636,-4738.163998070751,-5823.461810993146,-19610.16071120215,0.0
1548.734376953811,4678.583550175359,7919.37644768103,-359.5905704979725,-8780.369296360032,-4736.973103649496,-5824.87897535444,-19605.147045688664,0.0
1548.4009265158595,4679.083725832286,7919.1620866852045,-358.9236696220696,-8779.976301201017,-4734.710404249111,-5823.628536212122,-19604.76595947386,0.0
1545.6023246259101,4678.2977355142575,7918.209371148201,-359.1023037852579,-8779.38085399039,-4733.293239887817,-5821.020477429573,-19609.886805485257,0.0
1542.4940901864345,4680.0364413692905,7919.042997243079,-358.7450354588814,-8778.440047397598,-4734.234046480608,-5821.1395668717,-19625.04689146784,0.0
1541.5651925378556,4678.5597322869335,7918.6738199724905,-359.8406583264361,-8781.941276996087,-4739.866977093146,-5825.736419337743,-19636.84865518247,0.0
1543.0180837317866,4677.821377745756,7918.804818358828,-360.3170160949381,-8782.405725820377,-4742.68939687152,-5826.9868584800615,-19640.599972609427,0.0
1543.8159829940275,4678.131010295282,7918.090281706074,-361.114915357179,-8782.119911159276,-4743.618294520099,-5828.737473279306,-19638.968447252308,0.0
1543.9469813803657,4676.380395496037,7916.208668520491,-361.48409262776806,-8782.596268927779,-4742.153494381955,-5827.6299414675395,-19628.893480448492,0.0
1544.1494334319789,4675.796857229622,7916.911296229033,-361.10300641296647,-8781.10765090121,-4737.55664191591,-5822.663911730906,-19618.127794880344,0.0
1546.6860385492523,4676.475667049738,7917.7687402123365,-360.84100964029034,-8780.55983946743,-4736.580108490482,-5820.651300158984,-19609.600990824158,0.0
1547.1862142061796,4676.177943444423,7918.06646381765,-361.6865446793815,-8782.048457494,-4740.593422690112,-5824.593160693338,-19603.015344674615,0.0
1546.7098564376777,4676.380395496037,7917.721104435485,-362.1986292805211,-8784.38261055966,-4744.713917387654,-5827.903847184427,-19606.09976122567,0.0
1547.7340256399568,4675.534860456946,7917.137566169071,-361.8294520099321,-8782.953537254154,-4742.332128545144,-5827.070221089549,-19616.90117362645,0.0
1547.28148575988,4674.248694481991,7916.458756348955,-362.2939008342215,-8782.774903090967,-4741.415139840778,-5827.367944694863,-19630.751275745646,0.0
1545.5785067374852,4673.796154601914,7915.267861927701,-364.7233254535819,-8785.442506594578,-4742.344037489356,-5827.2488552527375,-19639.06371880601,0.0
1544.0779797667037,4671.747816197355,7912.79080153149,-367.81965094884515,-8787.205030338035,-4742.475035875695,-5828.165843957104,-19644.38701686902,0.0
1545.161693690046,4671.247640540428,7913.243341411568,-367.1051142960921,-8785.87122858623,-4739.938430758421,-5827.177401587463,-19643.529572885713,0.0
1546.9242174335034,4674.355874979903,7916.75647995427,-362.55589760689764,-8782.084184326639,-4739.74788765102,-5828.439749673992,-19634.44304845154,0.0
1547.7102077515317,4672.462352850108,7913.874515454833,-365.74749465586126,-8785.942682251505,-4744.571010057103,-5833.108055805313,-19624.141811707683,0.0
1549.7228193234528,4670.830827492988,7911.445090835472,-367.8553777814828,-8787.919566990788,-4745.285546709856,-5833.763047737002,-19613.697667633274,0.0
1547.9364776915702,4670.021019286535,7911.445090835472,-366.96220696554144,-8786.383313187369,-4744.856824718205,-5831.0597174007535,-19610.470343751673,0.0
1545.9238661196491,4667.984589826189,7909.908837032053,-367.56956312038153,-8787.443209222287,-4747.179068839651,-5831.166897898666,-19617.78243549818,0.0
1546.4240417765764,4669.306482633781,7910.992550955394,-366.283397145426,-8786.454766852645,-4748.52477953567,-5833.453415187476,-19624.92780202571,0.0
1549.2107347223132,4671.557273089954,7913.600609737944,-363.8777904144908,-8782.834447812029,-4747.881696548192,-5835.57320725731,-19629.64374393388,0.0
1550.139632370892,4673.093526893374,7915.82758230569,-362.8893480448491,-8781.048106180146,-4748.310418539843,-5836.371106519551,-19637.658463388925,0.0
1547.4243930904306,4673.260252112349,7915.386951369826,-364.2946034619301,-8782.810629923602,-4747.167159895439,-5837.383366777619,-19647.947791188573,0.0
1545.9953197849243,4672.509988626958,7913.433884518968,-366.2476703127884,-8785.418688706153,-4748.369963260908,-5836.454469129039,-19648.054971686484,0.0
1545.6023246259101,4672.2599007984945,7912.826528364128,-366.66448336022773,-8786.466675796857,-4748.762958419921,-5833.441506243264,-19641.31450926218,0.0
1547.9007508589325,4673.438886275537,7913.791152845344,-366.3667597549139,-8785.990318028355,-4747.762607106067,-5832.726969590511,-19627.833584413573,0.0
1548.6391054001106,4673.9986066535275,7913.767334956919,-365.1758653336588,-8784.346883727023,-4746.142990693161,-5831.274078396579,-19615.984184922083,0.0
1546.6622206608274,4672.271809742708,7911.969084380825,-366.21194348015075,-8784.454064224936,-4747.095706230164,-5830.80962957229,-19614.674201058704,0.0
1545.1259668574082,4672.116993467944,7911.099731453307,-365.8189483211366,-8784.299247950174,-4744.666281610804,-5831.786162997719,-19616.29381747161,0.0
1543.3753520581633,4672.760076455422,7912.409715316689,-365.21159216629644,-8784.596971555486,-4744.5471921686785,-5831.119262121816,-19622.59364896005,0.0
1543.0299926759994,4676.249397109699,7916.303940074192,-361.65081784674373,-8780.214480085267,-4741.23650567759,-5827.4393983601385,-19633.585604468233,0.0
1543.351534169738,4678.702639617485,7919.245449294692,-358.3520402998672,-8777.308697697406,-4738.104453349689,-5823.938168761649,-19644.756194139605,0.0
1543.7326203845396,4677.309293144616,7917.983101208161,-359.9954746011992,-8778.511501062872,-4737.735276079099,-5824.783703800739,-19650.59157680376,0.0
1544.5186107025681,4676.058854002298,7915.720401807777,-362.758349658511,-8780.45265896952,-4738.664173727678,-5825.4029688997925,-19646.81644148838,0.0
1546.031046617562,4677.297384200404,7917.292382443835,-362.3891723879219,-8782.679631537265,-4741.653318725028,-5825.760237226168,-19640.492792111516,0.0
1548.4842891253475,4676.821026431901,7916.911296229033,-362.5678065511102,-8781.417283450735,-4741.772408167154,-5826.236594994671,-19629.155477221168,0.0
1549.0082826706998,4676.320850774974,7916.423029516319,-362.0080861731203,-8782.084184326639,-4741.8676797208545,-5826.820133261085,-19617.46089400444,0.0
1548.258019185309,4675.3919531263955,7914.720050493924,-363.6396115302398,-8783.132171417343,-4740.533877969049,-5826.70104381896,-19614.84092627768,0.0
1546.185862892325,4675.344317349545,7914.56523421916,-363.88969935870335,-8782.143729047702,-4739.795523427871,-5828.904198498282,-19616.865446793814,0.0
1545.1736026342585,4678.0714655742195,7917.911647542887,-360.5671039234017,-8780.012028033654,-4739.771705539445,-5827.772848798089,-19620.72394471868,0.0
1545.078331080558,4677.309293144616,7917.1971108901325,-361.8770877867823,-8782.870174644666,-4744.892551550842,-5827.86812035179,-19633.168791420798,0.0
1543.7445293287524,4678.023829797369,7917.887829654462,-360.79337386344014,-8780.309751638968,-4742.046313884042,-5824.914702187078,-19644.57755997642,0.0
1543.7683472171773,4677.880922466818,7917.590106049147,-361.50791051619314,-8779.392762934602,-4741.581865059753,-5824.1168029248365,-19652.13973955139,0.0
1546.8884906008657,4678.190555016345,7917.852102821824,-361.1863690224543,-8779.261764548262,-4740.855419462787,-5823.580900435271,-19651.449020787062,0.0
1548.627196455898,4678.702639617485,7917.6139239375725,-361.7937251772944,-8780.940925682233,-4742.284492768294,-5825.748328281956,-19641.86232069596,0.0
1549.9967250403415,4677.690379359418,7916.792206786908,-361.9723593404827,-8781.44110133916,-4741.9391333861295,-5826.462864934709,-19628.071763297823,0.0
1550.7469885257321,4678.952727445948,7918.471367920876,-359.57866155375996,-8778.106596959646,-4739.295347770943,-5824.3787996975125,-19618.163521712984,0.0
1551.2471641826594,4679.869716150315,7919.88853228217,-358.89985173364454,-8775.843897559262,-4737.4851882506355,-5822.211371850829,-19611.792236559268,0.0
1551.9855187238375,4677.726106192055,7917.482925551235,-361.00773485926607,-8777.38015136268,-4738.878534723504,-5825.331515234517,-19613.88821074068,0.0
1552.819144818716,4676.023127169661,7915.506040811952,-363.18707165016286,-8781.083833012784,-4740.117064921609,-5827.582305690688,-19621.50993503671,0.0
1554.1886734031593,4680.917703241019,7920.245800608547,-360.05501932226196,-8779.38085399039,-4736.020388112492,-5824.747976968102,-19636.408024246608,0.0
1552.6881464323778,4682.168142383336,7921.496239750865,-358.2567687461668,-8777.23724403213,-4734.388862755372,-5820.687026991623,-19643.31521188989,0.0
1550.2468128688051,4682.9422237571525,7921.627238137203,-357.482687372351,-8776.427435825677,-4733.614781381556,-5819.627130956705,-19644.70855836276,0.0
1550.1991770919549,4681.644148837985,7921.269969810827,-357.73277520081456,-8776.796613096267,-4734.698495304899,-5820.663209103197,-19643.20803139198,0.0
1548.924920061212,4679.226633162837,7919.042997243079,-359.7572957169482,-8779.226037715627,-4737.735276079099,-5820.937114820085,-19640.790515716828,0.0
1549.9609982077038,4679.417176270238,7920.007621724295,-360.55519497918914,-8778.142323792285,-4735.817936060879,-5818.067059264861,-19626.36878427543,0.0
1551.6639772300987,4679.929260871378,7920.614977879137,-358.85221595679434,-8775.51044712131,-4735.162944129188,-5816.554623349866,-19617.853889163456,0.0
1551.9497918912,4679.667264098702,7919.662262342132,-358.9832143431324,-8774.80781941277,-4737.544732971698,-5822.139918185553,-19614.066844903864,0.0
1552.9501432050542,4680.2269844766915,7920.043348556933,-357.89950041979023,-8773.3192013862,-4735.937025503004,-5825.772146170381,-19613.078402534225,0.0
1551.973609779625,4680.846249575744,7921.103244591851,-355.56534735413027,-8770.711142603652,-4735.758391339815,-5827.284582085375,-19620.11658856384,0.0
1551.890247170137,4680.13171292299,7920.805520986536,-357.58986787026396,-8775.891533336113,-4740.783965797513,-5829.237648936233,-19631.394358733127,0.0
1549.9252713750664,4679.01227216701,7919.293085071543,-359.65011521903523,-8779.535670265152,-4744.237559619151,-5830.976354791265,-19639.337624522897,0.0
1547.1385784293293,4680.167439755628,7920.30534532961,-359.126121673683,-8775.748626005561,-4739.831250260509,-5826.403320213646,-19644.696649418547,0.0
1547.0552158198416,4679.083725832286,7919.662262342132,-360.29319820651295,-8775.83198861505,-4740.950691016488,-5829.69018881631,-19643.565299718353,0.0
1545.9119571754366,4677.940467187881,7918.006919096587,-362.7345317700859,-8778.511501062872,-4743.939836013838,-5831.393167838705,-19633.788056519847,0.0
1544.625791200481,4678.643094896422,7918.042645929225,-362.28199189000895,-8777.534967637444,-4740.879237351212,-5829.154286326746,-19622.5460131832,0.0
1548.258019185309,4678.797911171185,7919.114450908353,-360.32892503915065,-8774.974544631745,-4737.794820800163,-5827.010676368486,-19614.13829856914,0.0
1550.5802633067565,4677.964285076306,7918.590457363003,-360.1383819317498,-8774.486277919032,-4738.259269624451,-5826.998767424274,-19609.779624987346,0.0
1550.806533246795,4678.952727445948,7919.257358238905,-360.1383819317498,-8777.356333474256,-4741.831952888217,-5826.581954376835,-19609.469992437822,0.0
1550.4849917530562,4679.190906330199,7919.138268796779,-361.4007300182802,-8779.368945046175,-4742.570307429395,-5824.92661113129,-19616.829719961177,0.0
1548.865375340149,4679.714899875551,7919.995712780084,-360.4122876486385,-8777.773146521695,-4740.1289738658215,-5824.2716191996,-19631.572992896312,0.0
1549.8895445424284,4679.524356768151,7920.0314396127205,-359.55484366533483,-8776.62988787729,-4738.568902173977,-5824.41452653015,-19642.06477274757,0.0
1551.9497918912,4680.0721682019275,7920.317254273822,-359.45957211163443,-8776.02253172245,-4737.747185023311,-5823.616627267909,-19645.244460852326,0.0
1552.6762374881655,4679.691081987126,7919.340720848393,-359.72156888431056,-8776.046349610875,-4739.462072989919,-5825.105245294478,-19640.778606772616,0.0
1550.1277234266795,4678.702639617485,7917.554379216511,-360.05501932226196,-8774.557731584306,-4738.092544405476,-5825.462513620855,-19631.7516270595,0.0
1550.6398080278193,4677.04729637194,7915.541767644589,-361.36500318564254,-8777.177699311069,-4739.866977093146,-5826.200868162033,-19623.71308971603,0.0
1553.8194961325703,4677.345019977253,7915.136863541363,-362.1033577268207,-8778.77349783555,-4740.176609642672,-5824.771794856527,-19617.12744356649,0.0
1556.4632817477566,4678.381098123746,7917.280473499622,-362.13908455945835,-8778.368593732323,-4738.676082671891,-5822.830636949881,-19614.174025401775,0.0
1555.5343840991777,4677.726106192055,7917.875920710249,-362.5797154953227,-8779.66666865149,-4741.296050398652,-5825.16479001554,-19614.69801894713,0.0
1555.129479995951,4677.190203702491,7917.292382443835,-362.90125698906166,-8778.856860445036,-4739.033350998267,-5825.879326668294,-19622.974735174852,0.0
1553.617044080957,4677.547472028868,7917.673468658636,-361.1625511340292,-8777.14197247843,-4736.949285761071,-5824.3787996975125,-19632.192257995368,0.0
1553.140686312455,4678.786002226972,7918.149826427138,-360.23365348545025,-8775.808170726623,-4737.044557314771,-5825.129063182903,-19637.682281277353,0.0
1551.0685300194712,4679.607719377639,7919.019179354654,-359.91211199171136,-8774.140918536867,-4734.245955424822,-5824.223983422749,-19641.31450926218,0.0
1552.2236976080885,4679.190906330199,7919.864714393746,-360.9243722497782,-8776.236892718276,-4738.044908628625,-5821.794558803389,-19640.50470105573,0.0
1554.3196717894975,4678.690730673272,7919.69798917477,-360.5671039234017,-8777.034791980517,-4738.3545411781515,-5821.282474202249,-19635.455308709606,0.0
1557.0468200141718,4680.381800751455,7920.055257501146,-358.94748751049474,-8774.891182022258,-4736.19902227568,-5820.901387987447,-19624.17753854032,0.0
1557.4279062289734,4682.346776546526,7922.365592678381,-357.959045140853,-8773.59310710309,-4735.579757176627,-5821.294383146462,-19615.57928081886,0.0
1554.3911254547727,4681.382152065309,7920.805520986536,-360.5790128676142,-8778.332866899686,-4740.736330020662,-5824.247801311175,-19612.995039924735,0.0
1552.7238732650155,4681.322607344246,7920.233891664335,-359.8406583264361,-8777.320606641619,-4740.903055239638,-5824.890884298653,-19615.912731256813,0.0
1552.295151273364,4680.429436528305,7920.2219827201225,-359.1023037852579,-8776.451253714102,-4739.378710380432,-5825.629238839831,-19622.31974324316,0.0
1549.66327460239,4680.143621867203,7920.793612042324,-359.65011521903523,-8775.51044712131,-4736.75874265367,-5822.139918185553,-19632.454254768043,0.0
1550.4730828088434,4682.5254107097135,7922.78240572582,-357.44696053971336,-8772.140215909158,-4733.138423613055,-5821.461108365437,-19640.611881553643,0.0
1551.5210698995481,4682.549228598138,7922.841950446883,-355.77970834995625,-8768.650895254881,-4729.696738735628,-5821.532562030713,-19642.743582567688,0.0
1550.4016291435682,4682.120506606487,7922.853859391095,-355.5058026330675,-8768.031630155827,-4728.136667043783,-5818.4838723123,-19641.683686532768,0.0
1550.3420844225056,4680.608070691493,7921.674873914052,-358.7926712357316,-8775.212723515997,-4737.151737812685,-5821.854103524452,-19634.883679387403,0.0
1551.1280747405337,4680.822431687319,7921.174698257125,-359.2571200600211,-8776.963338315241,-4738.294996457089,-5823.961986650073,-19622.819918900088,0.0
1551.7235219511615,4681.334516288459,7921.734418635116,-358.6973996820312,-8775.855806503474,-4735.877480781942,-5821.508744142288,-19613.507124525873,0.0
1551.866429281712,4681.536968340071,7921.865417021454,-358.1138614156162,-8773.843194931553,-4735.436849846077,-5819.257953686116,-19605.587676624527,0.0
1551.2233462942343,4680.369891807242,7920.2934363853965,-359.7811136053733,-8776.451253714102,-4738.163998070751,-5820.96093270851,-19605.86158234142,0.0
1551.5091609553353,4680.619979635705,7921.258060866614,-358.9593964547073,-8774.748274691707,-4736.3538385504435,-5822.580549121418,-19617.103625678064,0.0
1552.295151273364,4681.953781387511,7923.115856163771,-357.30405320916276,-8772.926206227186,-4735.698846618752,-5821.342018923312,-19629.34602032857,0.0
1552.1998797196634,4683.061313199278,7922.949130944795,-357.73277520081456,-8773.069113557738,-4735.722664507178,-5819.817674064106,-19636.801019405626,0.0
1552.2594244407262,4684.907199552224,7924.4853847482145,-355.0770806414157,-8769.472612405547,-4732.912153673016,-5823.545173602634,-19641.90995647281,0.0
1551.5091609553353,4681.798965112747,7921.055608815,-360.34083398336315,-8775.391357679186,-4740.783965797513,-5826.7963153726605,-19640.635699442068,0.0
1550.5802633067565,4678.619277007997,7918.388005311389,-365.330681608422,-8779.297491380901,-4741.927224441917,-5824.736068023889,-19633.585604468233,0.0
1549.877635598216,4676.130307667573,7915.803764417265,-366.89075330026617,-8780.571748411645,-4741.510411394477,-5824.259710255387,-19621.85529441887,0.0
1549.7585461560905,4675.320499461121,7913.8030617895565,-365.79513043271146,-8781.39346556231,-4741.617591892391,-5824.3668907533,-19612.41150165832,0.0
1547.6387540862563,4673.093526893374,7912.69552997779,-367.04556957502933,-8782.477179485652,-4741.784317111366,-5823.795261431098,-19612.530591100447,0.0
1547.829297193657,4673.831881434551,7913.660154459006,-365.437862106335,-8781.095741956997,-4742.510762708333,-5824.438344418576,-19614.150207513354,0.0
1547.9602955799953,4674.046242430377,7914.422326888609,-363.4967041996892,-8777.999416461733,-4740.998326793338,-5825.53396728613,-19619.4139608553,0.0
1546.6026759397644,4675.070411632657,7915.339315592976,-364.1397871871669,-8779.214128771415,-4741.534229282903,-5825.105245294478,-19632.275620604854,0.0
1544.8877879731572,4676.535211770801,7916.089579078366,-363.9730619681912,-8779.976301201017,-4743.24911724951,-5827.403671527501,-19636.884382015112,0.0
1547.9602955799953,4678.11910135107,7918.06646381765,-361.9128146194199,-8776.90379359418,-4739.807432372083,-5826.736770651598,-19638.015731715306,0.0
1548.1508386873961,4679.6553551544885,7919.233540350481,-360.4122876486385,-8775.474720288672,-4738.616537950828,-5826.760588540023,-19639.44480502081,0.0
1548.1151118547584,4677.464109419379,7916.6373905121445,-362.8178943795738,-8777.082427757367,-4739.509708766769,-5825.48633150928,-19635.514853430668,0.0
1548.5200159579852,4675.463406791671,7914.303237446484,-365.437862106335,-8780.059663810505,-4742.344037489356,-5827.844302463364,-19624.46335320142,0.0
1549.163098945463,4675.284772628482,7914.100785394871,-366.0094914285374,-8780.583657355857,-4740.390970638498,-5825.8912356125065,-19609.93444126211,0.0
1550.1991770919549,4676.2970328865495,7914.327055334909,-365.68794993479855,-8780.226389029482,-4739.235803049881,-5823.914350873223,-19605.44476929398,0.0
1552.6405106555278,4676.559029659225,7914.720050493924,-363.0560732638248,-8778.96404094295,-4738.009181795987,-5821.6992872496885,-19609.255631441996,0.0
1551.9855187238375,4675.892128783323,7914.481871609672,-364.8185970072823,-8780.869472016959,-4741.724772390304,-5824.1525297574735,-19618.485063206717,0.0
1548.3771086274346,4678.369189179533,7917.042294615371,-363.1989805943754,-8777.570694470081,-4741.47468456184,-5823.485628881572,-19627.988400688337,0.0
1548.079385022121,4679.643446210276,7919.007270410441,-361.8413609541446,-8777.272970864768,-4743.594476631674,-5825.605420951405,-19638.527816316444,0.0
1545.9715018964994,4681.120155292632,7921.531966583501,-359.41193633478423,-8774.212372202142,-4739.164349384605,-5824.890884298653,-19642.029045914933,0.0
1545.4355994069347,4682.27532288125,7922.865768335308,-357.7446841450271,-8772.354576904983,-4735.472576678714,-5825.271970513454,-19634.061962236738,0.0
1547.6387540862563,4681.441696786372,7920.412525827522,-359.6858420516729,-8773.497835549388,-4736.734924765245,-5825.998416110419,-19625.63042973425,0.0
1549.163098945463,4680.417527584092,7918.7452736377645,-362.69880493744824,-8777.272970864768,-4743.237208305298,-5828.1182081802535,-19618.747059979396,0.0
1549.0916452801875,4680.3341649746035,7919.352629792606,-363.103709040675,-8776.760886263628,-4742.03440493983,-5826.736770651598,-19608.91027205983,0.0
1550.8779869120704,4681.274971567395,7920.436343715947,-361.2816405761547,-8775.808170726623,-4738.556993229766,-5824.497889139639,-19606.064034393028,0.0
1552.4737854365521,4681.477423619009,7919.948077003233,-359.9954746011992,-8775.65335445186,-4738.807081058229,-5824.045349259562,-19608.86263628298,0.0
1554.010039239971,4681.560786228497,7920.769794153898,-359.5191168326972,-8773.497835549388,-4737.854365521225,-5823.521355714209,-19613.090311478438,0.0
1552.7119643208032,4679.953078759802,7919.69798917477,-359.9954746011992,-8773.78365021049,-4740.200427531097,-5823.164087387832,-19626.666507880742,0.0
1549.6037298813274,4679.953078759802,7919.948077003233,-359.91211199171136,-8774.379097421119,-4741.307959342864,-5821.961284022365,-19639.68298390506,0.0
1547.9245687473576,4679.929260871378,7918.959634633592,-362.0557219499705,-8776.617978933078,-4741.153143068102,-5822.235189739254,-19643.21994033619,0.0
1550.83035113522,4682.430139156013,7921.007973038151,-359.45957211163443,-8772.378394793408,-4737.628095581186,-5820.901387987447,-19638.408726874317,0.0
1553.140686312455,4682.918405868728,7921.960688575154,-358.67358179360605,-8770.901685711053,-4735.555939288202,-5818.4838723123,-19630.42973425191,0.0
1553.3788651967059,4681.775147224323,7921.817781244603,-358.6854907378186,-8771.473315033254,-4734.234046480608,-5818.662506475488,-19620.95021465872,0.0
1554.1886734031593,4682.120506606487,7922.12741379413,-357.80422886608983,-8769.996605950899,-4731.01863154322,-5816.24499080034,-19607.314473535345,0.0
1556.213193919293,4682.4539570444385,7922.949130944795,-356.78005966381045,-8770.151422225663,-4729.768192400902,-5815.709088310776,-19597.94213444007,0.0
1554.486397008473,4680.9415211294445,7921.543875527715,-357.99477197349063,-8771.67576708487,-4733.11460572463,-5820.365485497883,-19598.239858045385,0.0
1552.735782209228,4682.465865988651,7921.436695029802,-359.3047558368713,-8774.43864214218,-4738.759445281378,-5819.269862630328,-19609.410447716757,0.0
1549.6275477697523,4682.251504992824,7921.460512918227,-358.304404523017,-8773.247747720925,-4738.771354225591,-5818.376691814387,-19624.772985750948,0.0
1548.1270207989712,4683.287583139317,7922.913404112159,-355.33907741409183,-8769.365431907634,-4735.841753949303,-5818.305238149112,-19632.99015725761,0.0
1547.84120613787,4684.454659672147,7924.544929469278,-354.1839098254744,-8768.78189364122,-4733.019334170928,-5816.268808688766,-19635.39576398854,0.0
1550.1158144824672,4683.894939294157,7923.580304988061,-355.1604432509036,-8769.448794517122,-4733.876778154233,-5817.840789324822,-19631.82308072478,0.0
1553.5932261925318,4685.085833715412,7924.699745744041,-353.74327888961005,-8766.007109639695,-4729.815828177753,-5812.755670146063,-19623.558273441267,0.0
1555.0580263306756,4687.300897338946,7926.807628869662,-353.7670967780351,-8765.375935596428,-4727.4816751120925,-5808.885263276984,-19611.851781280333,0.0
1554.224400235797,4686.169547638754,7925.914458053721,-358.2567687461668,-8773.652651824152,-4732.638247956127,-5813.422571021966,-19601.06227782376,0.0
1552.3785138828516,4685.800370368164,7924.568747357704,-358.3639492440798,-8774.974544631745,-4732.709701621402,-5811.493322059533,-19595.476982988075,0.0
1553.2955025872182,4686.788812737806,7925.199921400968,-356.57760761219714,-8771.842492303844,-4732.959789449866,-5810.123793475089,-19597.227597787318,0.0
1551.8783382259246,4686.0385492524165,7924.271023752389,-357.1135101017619,-8771.544768698532,-4734.412680643798,-5811.826772497484,-19609.255631441996,0.0
1550.9732584657706,4687.03890056627,7924.961742516718,-354.96990014350274,-8769.615519736097,-4731.221083594834,-5810.778785406779,-19620.42622111337,0.0
1550.4016291435682,4685.859915089228,7924.4853847482145,-355.77970834995625,-8770.818323101566,-4732.304797518176,-5811.028873235243,-19630.632186303523,0.0
1551.1995284058091,4685.1334694922625,7924.330568473452,-354.6007228729137,-8768.400807426417,-4732.662065844553,-5813.101029528228,-19633.585604468233,0.0
1550.3301754782929,4684.7523832774605,7924.449657915578,-354.17200088126185,-8766.435831631346,-4732.102345466563,-5815.292275263336,-19633.633240245086,0.0
1550.4849917530562,4685.466919930213,7925.116558791479,-353.7194610011849,-8764.196950119385,-4728.398663816459,-5815.816268808689,-19626.761779434444,0.0
1554.3673075663478,4688.956240584491,7927.879433848792,-351.6473047082011,-8761.898523886366,-4726.076419695011,-5817.471612054233,-19610.184529090573,0.0
1554.4983059526858,4688.479882815988,7926.7838109812365,-353.10019590213227,-8766.483467408198,-4730.375548555743,-5817.388249444745,-19600.50255744577,0.0
1552.366604938639,4686.395817578792,7925.25946612203,-355.7082546846809,-8772.021126467032,-4739.473981934131,-5819.23413579769,-19597.34668722944,0.0
1551.092347907896,4684.395114951084,7923.473124490148,-356.6966970543226,-8770.961230432114,-4737.27082725481,-5817.114343727857,-19600.77646316266,0.0
1549.8419087655784,4684.70474750061,7923.711303374398,-356.44660922585905,-8769.591701847672,-4734.400771699585,-5815.7329061992,-19607.112021483736,0.0
1548.9844647822747,4683.573397800417,7922.984857777434,-358.6021281283308,-8773.152476167224,-4736.496745880994,-5815.982994027664,-19620.11658856384,0.0
1549.6990014350276,4682.692135928689,7922.103595905704,-358.66167284939354,-8775.212723515997,-4736.413383271506,-5815.482818370737,-19629.97719437183,0.0
1549.4131867739266,4681.787056168535,7921.543875527715,-358.70930862624374,-8773.759832322065,-4734.507952197498,-5817.209615281557,-19635.610124984367,0.0
1550.1634502593172,4682.406321267588,7922.139322738343,-358.62594601675585,-8771.25895403743,-4734.305500145884,-5815.863904585539,-19632.53761737753,0.0
1551.9021561143497,4682.334867602312,7922.437046343655,-359.60247944218503,-8771.568586586956,-4736.127568610405,-5816.578441238292,-19624.88016624886,0.0
1553.140686312455,4683.085131087703,7922.853859391095,-358.9832143431324,-8771.461406089042,-4735.460667734502,-5815.506636259162,-19609.255631441996,0.0
1553.617044080957,4684.2641165647465,7923.747030207037,-356.54188077955945,-8770.69923365944,-4734.067321261633,-5815.185094765424,-19598.8233963118,0.0
1555.9154703139793,4684.51420439321,7922.758587837396,-356.5061539469218,-8771.175591427942,-4735.555939288202,-5817.983696655373,-19593.631096635127,0.0
1555.49865726654,4683.001768478215,7921.246151922402,-359.67393310746036,-8772.747572063998,-4736.520563769419,-5819.829583008318,-19599.371207745575,0.0
1556.7133695762202,4681.989508220148,7921.269969810827,-360.45992342548874,-8773.902739652614,-4735.913207614579,-5815.089823211722,-19610.184529090573,0.0
1556.5109175246068,4681.703693559048,7921.746327579329,-359.76920466116076,-8773.247747720925,-4735.448758790289,-5813.041484807165,-19621.736204976747,0.0
1556.0583776445299,4683.287583139317,7922.365592678381,-359.67393310746036,-8772.378394793408,-4734.865220523874,-5815.161276876998,-19630.56073263825,0.0
1557.2611810099975,4686.312454969304,7924.854562018803,-357.6255947029016,-8770.306238500427,-4731.923711303374,-5812.386492875474,-19628.810117839002,0.0
1557.5350867268862,4685.193014213325,7923.770848095462,-358.8283980683692,-8770.603962105739,-4730.78045265897,-5811.195598454219,-19625.356524017363,0.0
1556.6419159109448,4683.501944135143,7921.246151922402,-360.6623754771021,-8771.711493917508,-4732.054709689713,-5813.315390524052,-19617.984887549792,0.0
1557.1063647352344,4683.5853067446305,7922.996766721646,-357.31596215337527,-8767.590999219965,-4729.172745190275,-5811.850590385909,-19607.409745089048,0.0
1556.8443679625582,4684.395114951084,7923.115856163771,-359.0546680084077,-8771.711493917508,-4734.198319647971,-5814.875462215898,-19598.64476214861,0.0
1557.0468200141718,4683.335218916167,7920.9603372613,-362.1986292805211,-8775.593809730797,-4739.664525041532,-5814.47055811267,-19598.811487367588,0.0
1555.6892003739408,4684.549931225847,7921.865417021454,-358.6973996820312,-8770.151422225663,-4734.222137536397,-5812.13640504701,-19600.526375334193,0.0
1552.4023317712767,4683.966392959432,7921.591511304565,-357.36359793022547,-8767.269457726225,-4730.875724212669,-5814.006109288381,-19606.39748483098,0.0
1552.2713333849385,4682.3229586581,7920.722158377049,-357.8875914755777,-8767.805360215789,-4729.684829791415,-5814.51819388952,-19617.937251772946,0.0
1551.4853430669104,4682.144324494912,7919.495537123155,-360.0788372106871,-8770.901685711053,-4731.685532419123,-5814.291923949482,-19625.416068738425,0.0
1550.2944486456554,4680.322256030391,7917.149475113284,-364.2826945177175,-8777.65405707957,-4740.081338088972,-5819.591404124068,-19629.524654491754,0.0
1549.61563882554,4678.738366450122,7916.649299456357,-364.7709612304321,-8777.761237577482,-4741.47468456184,-5822.306643404529,-19629.73901548758,0.0
1551.5091609553353,4679.631537266063,7917.911647542887,-363.9611530239786,-8776.665614709927,-4741.0340536259755,-5823.378448383658,-19623.272458780168,0.0
1555.2962052149267,4680.655706468343,7918.304642701902,-363.5919757533896,-8776.320255327762,-4741.593774003965,-5823.914350873223,-19608.517276900817,0.0
1555.8559255929165,4682.084779773849,7919.555081844219,-362.60353338374784,-8774.498186863244,-4737.687640302249,-5817.78124460376,-19595.810433426024,0.0
1555.7011093181534,4681.548877284284,7919.709898118982,-361.88899673099485,-8773.950375429466,-4735.758391339815,-5815.816268808689,-19591.892390780096,0.0
1554.010039239971,4682.049052941211,7919.686080230557,-360.7219201981648,-8772.354576904983,-4733.019334170928,-5813.112938472439,-19598.144586491682,0.0
1553.7837692999328,4683.239947362466,7920.317254273822,-359.4952989442721,-8768.87716519492,-4729.0298378597245,-5810.361972359341,-19606.57611899417,0.0
1552.926325316629,4683.44239941408,7920.388707939097,-360.2217445412377,-8769.841789676135,-4728.958384194449,-5809.790343037138,-19615.281557213544,0.0
1549.1750078896755,4683.239947362466,7920.233891664335,-361.43645685091786,-8772.497484235535,-4732.1261633549875,-5813.232027914565,-19625.416068738425,0.0
1548.8534663959367,4683.025586366641,7920.317254273822,-360.81719175186527,-8771.96158174597,-4734.341226978522,-5815.304184207549,-19631.775444947925,0.0
1549.9252713750664,4681.775147224323,7918.935816745166,-362.99652854276206,-8774.43864214218,-4737.759093967524,-5814.172834507357,-19633.28788086292,0.0
1551.34243573636,4682.870770091877,7921.055608815,-362.09144878260815,-8773.497835549388,-4736.151386498829,-5812.684216480788,-19627.857402302,0.0
1557.0230021257464,4685.252558934388,7924.009026979713,-357.8399556987275,-8768.817620473856,-4733.721961879469,-5811.112235844731,-19611.137244627575,0.0
1557.380270452123,4685.490737818638,7924.080480644988,-355.9107067362943,-8765.649841313318,-4733.995867596358,-5814.673010164283,-19601.240911986948,0.0
1554.8436653348497,4684.728565389035,7923.747030207037,-356.3751555605838,-8766.197652747096,-4733.126514668842,-5817.650246217421,-19600.46683061313,0.0
1552.342787050214,4684.442750727934,7922.83004150267,-356.89914910593603,-8768.865256250707,-4735.03194574285,-5817.959878766947,-19603.932333378983,0.0
1549.6751835466025,4683.478126246718,7922.31795690153,-357.9114093640028,-8770.294329556213,-4737.497097194848,-5818.888776415527,-19614.51938478394,0.0
1549.2107347223132,4685.085833715412,7923.270672438535,-356.8634222732984,-8768.198355374803,-4733.066969947779,-5816.518896517229,-19623.70118077182,0.0
1549.4489136065642,4685.002471105924,7922.008324352005,-359.4000273905717,-8771.08031987424,-4735.49639456714,-5820.627482270559,-19630.394007419272,0.0
1549.8061819329407,4683.108948976129,7919.495537123155,-362.60353338374784,-8774.593458416944,-4738.402176955002,-5822.128009241341,-19636.72956574035,0.0
1551.1876194615966,4683.097040031916,7919.447901346306,-362.4963528858349,-8776.439344769888,-4740.343334861648,-5820.508392828433,-19637.24165034149,0.0
1552.1998797196634,4682.215778160187,7918.781000470403,-362.41299027634705,-8776.498889490951,-4740.962599960701,-5820.96093270851,-19630.92990990884,0.0
1554.3553986221352,4681.596513061134,7918.137917482925,-363.8420635818531,-8775.355630846547,-4738.53317534134,-5819.829583008318,-19615.34110193461,0.0
1553.855222965208,4682.573046486564,7918.233189036625,-364.85432383991997,-8774.95072674332,-4734.650859528048,-5816.3402623540405,-19606.326031165707,0.0
1554.6650311716614,4684.359388118446,7919.971894891659,-362.27008294579645,-8773.200111944076,-4733.86486921002,-5816.483169684592,-19600.395376947854,0.0
1553.7956782441452,4683.418581525655,7919.245449294692,-362.90125698906166,-8778.058961182796,-4739.521617710981,-5818.543417033363,-19606.504665328895,0.0
1552.9501432050542,4681.405969953733,7917.113748280645,-363.2704342596507,-8777.165790366855,-4739.485890878344,-5818.507690200725,-19617.306077729678,0.0
1552.5095122691898,4679.98880559244,7916.875569396395,-361.7222715120191,-8774.414824253756,-4737.342280920086,-5819.948672450443,-19626.70223471338,0.0
1551.2471641826594,4680.107895034565,7917.340018220684,-359.9716567127741,-8773.2239298325,-4737.187464645322,-5817.662155161634,-19635.776850203347,0.0
1552.8905984839914,4681.453605730584,7918.507094753514,-360.3646518717883,-8771.318498758494,-4734.984309966,-5818.4838723123,-19641.67177758856,0.0
1552.497603324977,4681.322607344246,7916.935114117458,-364.03260668925395,-8772.99765989246,-4736.865923151583,-5820.698935935834,-19634.145324846224,0.0
1552.0926992217505,4680.45325441673,7916.7445710100565,-364.616144955669,-8777.034791980517,-4742.248765935657,-5824.057258203774,-19627.381044533497,0.0
1553.9147676862706,4680.953430073657,7918.590457363003,-362.2105382247337,-8775.212723515997,-4739.473981934131,-5819.412769960879,-19617.92534282873,0.0
1557.2373631215726,4683.549579911993,7920.650704711773,-360.65046653288954,-8775.034089352808,-4740.712512132237,-5817.959878766947,-19607.27874670271,0.0
1559.9168755693966,4686.0385492524165,7922.115504849918,-358.7688533473065,-8772.640391566085,-4737.235100422172,-5814.768281717985,-19602.348443798714,0.0
1560.2026902304976,4686.741176960957,7922.699043116332,-356.94678488278623,-8770.88977676684,-4733.233695166755,-5812.410310763899,-19607.409745089048,0.0
1559.6667877409327,4685.633645149189,7922.103595905704,-357.61368575868903,-8771.25895403743,-4733.317057776243,-5812.207858712286,-19612.06614227616,0.0
1555.998832923467,4685.955186642928,7922.591862618419,-358.23295085774174,-8772.140215909158,-4735.270124627101,-5814.649192275859,-19618.008705438217,0.0
1549.2107347223132,4681.334516288459,7918.006919096587,-361.6746357351689,-8774.426733197968,-4737.354189864297,-5819.174591076628,-19631.489630286826,0.0
1543.3158073371005,4676.654301212926,7912.909890973615,-365.9499467074746,-8777.868418075395,-4741.951042330342,-5823.997713482711,-19637.932369105816,0.0
1546.138227115475,4676.773390655051,7914.37469111176,-365.8665840979868,-8777.570694470081,-4741.117416235463,-5825.307697346091,-19638.646905758567,0.0
1550.6040811951816,4679.178997385986,7916.161032743643,-365.330681608422,-8777.55878552587,-4738.318814345514,-5819.329407351391,-19632.871067815482,0.0
1553.9743124073336,4680.667615412555,7917.435289774386,-363.56815786496446,-8776.665614709927,-4737.913910242288,-5818.162330818561,-19617.651437111843,0.0
