EEG 1,EEG 2,EEG 3,EEG 4,EEG 5,EEG 6,EEG 7,EEG 8,Trigger
1817.1381616162819,1876.313705408447,3916.530210014231,-3845.7553545590417,-9597.84686288637,-7375.3044223864335,-5626.511691605981,-17358.167451664573,0.0
1812.517491261812,1878.457315366706,3918.185553259776,-3843.0043884459424,-9594.286088566818,-7372.613000994396,-5624.117993819257,-17345.07952197498,0.0
1791.7482925551235,1871.7883066076777,3910.6829184058683,-3850.006847642922,-9601.407637205923,-7380.341905788342,-5630.656004191948,-17364.87218725624,0.0
1792.796279645828,1874.193913338613,3912.7193478662143,-3847.458333581436,-9599.287845136088,-7376.542952584538,-5627.166683537671,-17408.101654747796,0.0
1792.9510959205911,1876.1231623010462,3915.422678202464,-3844.9931821294385,-9596.572605855627,-7374.268344239941,-5625.094527244687,-17445.662464794183,0.0
1789.3903216010385,1870.132963362133,3909.8135654783523,-3851.0429257894143,-9601.895903918637,-7379.067648757599,-5631.513448175251,-17459.857926295543,0.0
1795.7854246431782,1871.621581388702,3910.9449151785443,-3849.2089483806812,-9600.228651728881,-7376.626315194026,-5628.464758456838,-17452.47438088376,0.0
1813.315390524053,1876.4327948505725,3915.22022615085,-3844.969364241013,-9595.56034559756,-7371.160109800466,-5623.510637664418,-17434.086971019584,0.0
1814.1490166189317,1868.942068940878,3908.3368563959957,-3851.6145551116165,-9600.728827385808,-7376.92403879934,-5630.036739092896,-17422.48765935656,0.0
1815.8758135297514,1874.0152791754247,3914.1722390601462,-3845.922079778017,-9595.32216671331,-7374.935245115845,-5625.2612524636625,-17388.47571468551,0.0
1815.0302784906605,1878.326316980368,3917.6139239375734,-3842.218398127914,-9591.177854127343,-7371.576922847904,-5620.592946332343,-17361.454320267236,0.0
1821.3896547001625,1883.4114361591273,3922.3894105668064,-3836.907009009116,-9586.36664066547,-7365.5629060205665,-5615.35301087882,-17346.06796434462,0.0
1784.3171113664916,1867.1438183647829,3906.1098838282487,-3853.2103536360983,-9602.527077961902,-7382.628423077152,-5635.014677773742,-17373.351355535575,0.0
1773.6109705194085,1869.8352397568192,3908.372583228634,-3851.1143794546892,-9601.121822544823,-7380.782536724207,-5633.180700365009,-17388.69007568134,0.0
1795.1066148230627,1874.5749995534145,3912.74316575464,-3846.1007139412054,-9595.774706593385,-7374.2445263515165,-5625.118345133113,-17415.604289601706,0.0
1812.5889449270876,1875.6706224209693,3913.9459691201073,-3845.0884536831386,-9593.488189304577,-7371.18392768889,-5622.200653801036,-17440.8393423881,0.0
1799.2866542416682,1875.8254386957324,3913.541065016881,-3845.719627726404,-9594.250361734179,-7372.315277389083,-5623.022370951703,-17441.196610714476,0.0
1784.9363764655445,1871.2285862296878,3909.4801150404005,-3851.066743677839,-9599.002030474987,-7377.1145819067415,-5626.78559732287,-17433.872610023758,0.0
1788.6996028367105,1875.25380937353,3914.5295073865223,-3845.8863529453797,-9594.250361734179,-7372.517729440697,-5621.9029301957235,-17403.254714453287,0.0
1789.0925979957246,1875.1585378198295,3914.8510488802613,-3844.123829201922,-9592.10675177592,-7370.6599341435385,-5620.569128443917,-17370.659934143536,0.0
1790.6645786317813,1869.2636104346168,3909.3133898214255,-3849.9473029218593,-9598.299402766448,-7378.23402266272,-5627.238137202946,-17354.070774855452,0.0
1798.4053923699394,1874.193913338613,3914.541416330735,-3845.6839008937663,-9593.476280360364,-7372.76781726916,-5622.855645732727,-17347.901941753356,0.0
1792.2246503236254,1875.170446764042,3916.3039400741923,-3844.5882780262114,-9592.833197372887,-7372.005644839557,-5622.045837526274,-17360.26342584598,0.0
1801.9304398568545,1875.9326191936455,3916.5183010700184,-3843.147295776493,-9592.38065749281,-7372.112825337469,-5621.74811392096,-17382.914237738252,0.0
1807.587188357816,1870.2044170274085,3909.0275751603235,-3849.328037822807,-9597.620592946332,-7376.745404636152,-5627.643041306173,-17420.07014368141,0.0
1816.6379859593549,1877.0163331169877,3916.6016636795066,-3841.6944045825617,-9589.641600323923,-7368.313872133666,-5618.604152648847,-17428.465949351263,0.0
1799.5724689027695,1877.1711493917508,3917.637741825998,-3840.7655069339826,-9587.462263533027,-7365.884447514306,-5616.067547531574,-17430.954918691685,0.0
1812.6365807039376,1876.6471558463984,3917.280473499622,-3839.6103393453654,-9586.354731721258,-7364.205286380336,-5617.222715120191,-17414.91357083738,0.0
1794.0943545649961,1871.5501277234266,3910.5876468521683,-3847.3868799161605,-9595.727070816536,-7376.161866369736,-5628.0479454094,-17399.598668580038,0.0
1798.2982118720265,1870.8832268475237,3909.515841873039,-3849.042223161706,-9597.037054679919,-7376.733495691939,-5628.274215349438,-17371.767465955305,0.0
1807.3847363062027,1874.4916369439268,3913.9340601758945,-3844.0642844808594,-9591.749483449545,-7371.50546918263,-5621.247938264033,-17349.831190715788,0.0
1786.984714870103,1873.6699197932608,3912.2668079861382,-3845.743445614829,-9592.690290042337,-7369.933488546572,-5620.390494280729,-17349.34292400307,0.0
1781.1731500943783,1869.3826998767424,3907.4436855800545,-3849.590034595483,-9597.299051452594,-7375.887960652848,-5625.713792343739,-17368.587777850553,0.0
1786.246360328925,1870.6093211306352,3908.3487653402085,-3848.601592225841,-9596.012885477638,-7373.720532806164,-5623.0342798959155,-17400.348932065426,0.0
1782.9952185588986,1867.3343614721837,3905.3834382312834,-3852.924538974997,-9600.776463162658,-7380.139453736729,-5628.738664173728,-17431.621819567586,0.0
1788.925872776749,1867.8107192406856,3906.467152154626,-3852.9007210865716,-9601.979266528126,-7382.961873515103,-5631.54917500789,-17449.23514805795,0.0
1800.8467259335123,1878.8741284141454,3918.2093711482003,-3840.8965053203206,-9589.9988686503,-7368.766412013743,-5620.592946332343,-17434.241787294348,0.0
1782.1020477429572,1872.121757045629,3911.2188208954335,-3846.49370910022,-9594.274179622606,-7373.625261252463,-5625.094527244687,-17427.72759481008,0.0
1797.750400438249,1866.8222768710439,3904.7403552438054,-3852.555361704408,-9599.70465818353,-7380.4729041746805,-5629.834287041283,-17405.68413907265,0.0
1806.3962939365608,1874.1105507291252,3911.2426387838586,-3846.469891211794,-9592.999922591862,-7372.446275775421,-5621.462299259859,-17376.483407863474,0.0
1782.8046754514978,1871.0023162896493,3908.2296758980833,-3850.483205411424,-9596.477334301928,-7376.400045253988,-5625.618520790039,-17365.455725522654,0.0
1788.020793016595,1872.3003912088175,3910.5757379079555,-3847.7203303541123,-9593.440553527727,-7373.660988085101,-5624.59435158776,-17351.998618562473,0.0
1783.5073031600382,1866.8580037036816,3905.109532514395,-3852.769722700234,-9599.311663024515,-7380.865899333695,-5629.250748774867,-17354.773402563995,0.0
1786.4369034363258,1869.8352397568192,3908.1224954001705,-3851.066743677839,-9597.668228723183,-7377.3765786794165,-5624.832530472011,-17385.20075502706,0.0
1786.5679018226638,1868.6800721682018,3907.3245961379293,-3851.3049225620903,-9597.572957169481,-7378.293567383784,-5626.440237940706,-17431.859998451837,0.0
1798.0838508762004,1873.658010849048,3913.505338184243,-3844.469188584086,-9590.117958092425,-7371.457833405779,-5621.247938264033,-17448.103798357755,0.0
1789.664227317927,1873.312651466884,3912.4335332051137,-3846.398437546519,-9592.98801364765,-7374.208799518879,-5623.308185612805,-17448.425339851496,0.0
1785.8057293930606,1865.1073889044367,3903.7400039299514,-3855.36587253857,-9602.288899077652,-7382.723694630852,-5632.716251540719,-17441.863511590378,0.0
1797.595584163486,1871.4905830023638,3909.384843486701,-3849.0660410501305,-9596.48924324614,-7377.448032344692,-5627.512042919835,-17406.910760326544,0.0
1782.506951846184,1864.2618538653455,3902.156114349682,-3856.4376775176993,-9602.586622682966,-7382.66414990979,-5632.918703592332,-17380.329996844128,0.0
1811.6124115016582,1870.0496007526453,3909.14666460245,-3850.125937085048,-9596.370153804015,-7376.82876724564,-5626.344966387004,-17355.01158144825,0.0
1801.787532526304,1866.47691748888,3906.086065939824,-3853.3413520224367,-9598.83530525601,-7379.162920311299,-5628.774391006365,-17342.328555861877,0.0
1788.0565198492327,1874.9799036566412,3913.9340601758945,-3844.3381901977477,-9590.356136976676,-7371.005293525702,-5619.985590177503,-17349.080927230396,0.0
1812.386492875474,1873.3721961879469,3913.088525136804,-3844.9098195199504,-9590.41568169774,-7370.6599341435385,-5619.140055138412,-17389.82142538153,0.0
1801.2873568693767,1871.9193049940156,3911.599907110235,-3846.5532538212824,-9591.237398848405,-7370.493208924562,-5619.699775516402,-17422.654384575533,0.0
1774.7304112753882,1864.0474928695196,3902.9421046677107,-3854.1630691731025,-9598.239858045385,-7378.317385272208,-5629.798560208645,-17442.38750513573,0.0
1783.9717519843277,1869.3826998767424,3908.4440368939095,-3847.732239298325,-9592.356839604385,-7372.0175537837695,-5623.903632823432,-17432.467354606677,0.0
1789.6523183737147,1869.394608820955,3907.8962254601315,-3849.613852483908,-9597.227597787318,-7377.48375917733,-5624.844439416223,-17418.212348384255,0.0
1793.4631805217307,1868.0727160133617,3907.3007782495047,-3850.6499306304,-9596.977509958855,-7374.58988573368,-5622.593648960051,-17402.683085131088,0.0
1792.9987316974411,1863.0114147230277,3901.346306143229,-3855.723140864947,-9600.716918441596,-7379.008104036537,-5628.024127520975,-17373.053631930263,0.0
1813.6012051851542,1868.144169678637,3906.0741569956117,-3851.8884608285052,-9596.012885477638,-7373.708623861951,-5623.963177544495,-17348.485480019768,0.0
1790.855121739182,1869.156429936704,3907.705682352731,-3849.637670372333,-9595.012534163783,-7373.625261252463,-5623.855997046582,-17347.4732197617,0.0
1765.667704729637,1863.4044098820418,3901.655938692755,-3856.4972222387623,-9604.134785430597,-7381.449437600109,-5629.631834989669,-17368.492506296854,0.0
1778.850905972931,1858.8313753044224,3896.106370689706,-3861.6180682501595,-9608.695911064004,-7385.438933911314,-5632.216075883792,-17397.08588135119,0.0
1784.8053780792063,1857.8072061021428,3895.4871055906538,-3861.4037072543333,-9608.005192299677,-7384.271857378484,-5631.942170166904,-17428.966125008188,0.0
1775.5521284260544,1860.4748096057544,3898.1189822616275,-3858.8790110812724,-9605.694857122442,-7383.604956502581,-5629.441291882268,-17441.11324810499,0.0
1782.375953459846,1862.630328508226,3900.7151320999637,-3855.7588676975843,-9602.157900691313,-7381.199349771646,-5627.833584413574,-17438.112194163426,0.0
1790.5573981338684,1862.6422374524386,3902.084660684407,-3854.6394269416046,-9599.287845136088,-7377.674302284731,-5626.082969614329,-17423.90482371785,0.0
1793.796630959682,1867.1795451974206,3905.9669764976984,-3850.5308411882743,-9596.012885477638,-7376.078503760249,-5624.927802025712,-17393.918102190648,0.0
1779.6726231235968,1857.6523898273797,3896.1778243549816,-3859.8436355624895,-9606.94529626476,-7387.820722753824,-5635.33621926748,-17371.958009062706,0.0
1785.746184671998,1860.5105364383921,3899.2979677386697,-3856.6996742903757,-9604.468235868548,-7384.164676880571,-5632.120804330092,-17345.341518747657,0.0
1797.250224781322,1868.3108948976128,3907.5746839663925,-3848.4825027837155,-9596.036703366062,-7375.590237047534,-5623.403457166505,-17346.06796434462,0.0
1784.8053780792063,1860.165177056228,3899.214605129182,-3856.139953912386,-9603.706063438945,-7383.033327180379,-5630.810820466711,-17375.756962266507,0.0
1788.0446109050201,1864.8453921317605,3903.1802835519616,-3851.91227871693,-9598.466127985423,-7376.912129855128,-5624.558624755122,-17392.548573606204,0.0
1794.8446180503868,1867.0247289226575,3905.4668008407716,-3851.1858331199646,-9596.429698525077,-7373.291810814512,-5623.891723879219,-17411.912516895813,0.0
1788.6162402272228,1859.557820901388,3898.5357953090665,-3857.295121501003,-9603.324977224143,-7382.783239351916,-5632.073168553242,-17439.52935852472,0.0
1780.1847077247367,1859.9150892277644,3898.773974193318,-3856.818763732501,-9602.479442185053,-7382.914237738253,-5631.8707165016285,-17452.867376042777,0.0
1776.5882065725464,1861.4513430311836,3899.6195092324087,-3856.9735800072644,-9603.015344674619,-7382.485515746601,-5630.715548913011,-17441.553879040854,0.0
1804.9553116868424,1864.333307530621,3903.0254672771985,-3852.924538974997,-9599.776111848803,-7379.067648757599,-5626.333057442793,-17408.44701412996,0.0
1795.9164230295162,1860.3676291078416,3899.5837823997713,-3855.5921424786084,-9603.003435730405,-7382.485515746601,-5629.488927659118,-17378.41265682591,0.0
1768.8116660017506,1859.4030046266248,3898.4286148111537,-3857.0807605051773,-9604.682596864375,-7384.521945206947,-5632.239893772217,-17354.57095051238,0.0
1778.4698197581292,1856.5567669598252,3895.9991901917933,-3859.4625493476874,-9605.861582341417,-7386.177288452492,-5633.716602854574,-17354.451861070258,0.0
1792.5938275942146,1858.4026533127706,3897.249629334111,-3857.461846719979,-9603.313068279931,-7381.580435986447,-5628.976843057979,-17369.12368034012,0.0
1798.2386671509637,1869.8114218683943,3907.7533181295807,-3845.5648114516407,-9592.654563209699,-7371.243472409954,-5617.413258227592,-17382.545060467666,0.0
1781.625689974455,1867.167636253208,3903.561369766763,-3849.518580930208,-9596.108157031338,-7376.257137923437,-5621.128848821907,-17418.00989633264,0.0
1783.5430299926759,1863.190048886216,3899.85768811666,-3853.746256125663,-9600.18101595203,-7380.949261943182,-5625.320797184726,-17435.361228050326,0.0
1790.9027575160324,1864.2023091442827,3902.0370249075568,-3852.0909128801186,-9597.870680774795,-7377.459941288905,-5624.165629596108,-17440.87506922074,0.0
1778.1482782643905,1861.2369820353576,3899.8338702282344,-3854.71088060688,-9599.037757307626,-7378.2459316069335,-5629.048296723254,-17434.706236118636,0.0
1781.1731500943783,1856.0208644702602,3895.0345657105768,-3858.7837395275724,-9603.920424434773,-7383.986042717383,-5634.72886311264,-17413.222500759195,0.0
1806.5749280997493,1871.0737699549247,3909.5634776498887,-3844.8740926873124,-9590.665769526204,-7371.719830178456,-5620.914487826082,-17372.148552170107,0.0
1786.8656254279774,1870.3592333021716,3908.3487653402085,-3846.4579822675823,-9593.583460858277,-7375.7569622665105,-5621.04548621242,-17350.700543643303,0.0
1792.2246503236254,1862.1896975723616,3901.3820329758664,-3854.0201618425517,-9600.03810862148,-7380.711083058931,-5628.155125907312,-17349.438195556773,0.0
1797.0477727297086,1864.1546733674327,3902.954013611923,-3850.5427501324866,-9596.060521254487,-7374.839973562143,-5624.08226698662,-17362.002131701014,0.0
1778.3150034833661,1863.4401367146795,3901.655938692755,-3850.4712964672117,-9595.405529322798,-7374.4707962915545,-5624.451444257209,-17390.202511596337,0.0
1775.7307625892424,1862.2254244049993,3900.0363222798483,-3853.246080468736,-9599.776111848803,-7381.866250647548,-5628.119399074675,-17423.464192781987,0.0
1782.5426786788216,1860.4867185499668,3898.8097010259557,-3856.1042270797484,-9601.431455094349,-7382.616514132939,-5629.084023555891,-17438.838639760394,0.0
1798.3815744815145,1868.2275322881248,3905.7526155018727,-3850.030665531347,-9595.715161872324,-7377.138399795166,-5622.986644119065,-17433.670157972145,0.0
1785.3174626803461,1863.8450408179062,3901.465395585354,-3853.5795309066875,-9599.633204518253,-7381.961522201249,-5626.618872103893,-17425.691165349734,0.0
1777.1360180063236,1855.6040514228212,3894.0342143967223,-3860.2366307215034,-9605.59958556874,-7388.332807354964,-5634.383503730476,-17406.744035107567,0.0
1784.9125585771192,1856.9497621188393,3895.3084714274655,-3858.6646500854467,-9603.813243936858,-7386.987096658946,-5634.621682614728,-17376.245228979224,0.0
1792.0936519372874,1863.559226156805,3901.1081272589777,-3854.2940675594405,-9599.347389857152,-7382.99760034774,-5627.976491744124,-17350.986358304403,0.0
1785.8057293930606,1860.8678047647684,3898.476250588004,-3856.5210401271875,-9600.64546477632,-7384.2837663226965,-5629.762833376007,-17342.50719002507,0.0
1784.0908414264534,1862.7732358387768,3900.1554117219735,-3853.5199861856245,-9598.799578423375,-7379.937001685115,-5626.92850465342,-17353.975503301754,0.0
1778.6603628655303,1859.7602729530013,3897.4282634972997,-3855.5683245901837,-9602.407988519777,-7385.28411763655,-5629.512745547544,-17395.323357607733,0.0
1797.750400438249,1857.4737556641915,3895.677648698055,-3857.4499377757666,-9602.288899077652,-7385.998654289304,-5631.215724569938,-17427.834775307994,0.0
1800.1321892807593,1859.295824128712,3897.1900846130484,-3854.698971662667,-9598.501854818061,-7381.425619711685,-5628.274215349438,-17440.255804121683,0.0
1785.7223667835726,1861.915791855473,3898.464341643791,-3853.7105292930255,-9598.740033702312,-7381.54470915381,-5626.9642314860575,-17438.767186095116,0.0
1781.4351468670543,1866.3340101583294,3903.061194109836,-3850.5308411882743,-9596.072430198701,-7378.710380431222,-5624.499080034059,-17420.439320952002,0.0
1769.22847904919,1855.2944188732947,3892.545596370154,-3861.5585235290964,-9606.254577500431,-7388.45189679709,-5635.717305482282,-17407.79202219827,0.0
1776.3976634651456,1854.675153774242,3892.724230533342,-3860.0699055025275,-9604.93268469284,-7387.630179646423,-5634.788407833704,-17378.769925152283,0.0
1791.9269267183117,1869.442244597805,3907.3484140263545,-3845.290905734752,-9590.98731101994,-7374.042074299903,-5619.902227568015,-17346.85395466265,0.0
1795.8092425316033,1866.0839223298658,3903.9186380931396,-3849.554307762845,-9594.762446335319,-7377.781482782643,-5623.736907604456,-17344.233986935888,0.0
1816.1139924140023,1862.7256000619266,3899.929141781935,-3853.3889877992865,-9597.84686288637,-7380.484813118893,-5626.225876944879,-17364.09810588242,0.0
1801.3469015904393,1862.5946016755884,3900.9056752073643,-3851.686008776892,-9595.762797649175,-7378.293567383784,-5626.011515949053,-17388.04699269386,0.0
1756.95035756605,1858.2359280937947,3896.7970894540344,-3857.426119887341,-9600.288196449943,-7382.99760034774,-5630.120101702383,-17429.513936441963,0.0
1777.4099237232122,1860.5819901036673,3898.976426244931,-3854.9728773795555,-9598.26367593381,-7381.211258715858,-5628.155125907312,-17443.768942664385,0.0
1776.9097480662851,1861.0821657605945,3898.821609970168,-3856.461495406125,-9600.050017565693,-7382.961873515103,-5629.048296723254,-17445.54337535206,0.0
1783.2810332199997,1855.8065034744345,3893.3673135208196,-3861.7371576922847,-9605.17086357709,-7387.915994307525,-5633.51415080296,-17444.602568759266,0.0
1812.755670146063,1864.7977563549102,3902.525291620271,-3852.2933649317315,-9595.476982988073,-7378.210204774296,-5624.070358042408,-17407.470480704535,0.0
1798.8579322500163,1866.048195497228,3904.335451140579,-3849.6972150933957,-9592.797470540248,-7375.876051708636,-5623.248640891741,-17369.873943825507,0.0
1782.959491726261,1861.0226210395315,3899.8100523398098,-3853.246080468736,-9596.53687902299,-7380.413359453618,-5625.892426506928,-17356.309656367415,0.0
1786.8656254279774,1863.0709594440905,3901.143854091615,-3852.1980933780314,-9595.619890318623,-7379.81791224299,-5623.058097784341,-17349.6525565526,0.0
1785.5437326203844,1864.5595774706592,3902.132296461257,-3851.245377841027,-9595.119714661698,-7379.127193478662,-5623.415366110717,-17350.87917780649,0.0
1792.9034601437409,1857.7357524368676,3895.7610113075425,-3856.8425816209265,-9600.419194836282,-7383.509684948881,-5630.870365187774,-17387.320547096897,0.0
1816.2211729119156,1861.7371576922849,3899.750507618747,-3851.91227871693,-9594.500449562644,-7377.459941288905,-5626.41642005228,-17415.91392215123,0.0
1786.7941717627023,1867.3105435837585,3906.169428549312,-3844.8264569104626,-9586.664364270786,-7369.064135619056,-5620.771580495531,-17430.359471481053,0.0
1786.5440839342389,1861.1774373142948,3898.666793695405,-3854.2940675594405,-9599.728476071952,-7383.521593893093,-5629.727106543369,-17456.39242352969,0.0
1779.7321678446597,1857.592845106317,3894.7249331610506,-3858.9266468581227,-9604.503962701187,-7388.809165123465,-5633.728511798787,-17442.339869358882,0.0
1768.1328561816351,1856.663947457738,3894.820204714751,-3859.152916798161,-9603.944242323196,-7389.15452450563,-5635.502944486457,-17411.88869900739,0.0
1802.1805276853179,1860.7606242668555,3899.0716977986312,-3853.936799233064,-9597.37050511787,-7381.08026032952,-5629.417473993843,-17387.308638152685,0.0
1816.8166201225429,1862.0110634091734,3899.9172328377226,-3851.9241876611427,-9595.60798137441,-7380.175180569366,-5626.404511108068,-17364.75309781411,0.0
1770.181194586194,1852.9959926402723,3890.580620575083,-3862.8327805598396,-9606.421302719407,-7391.67922067869,-5635.455308709606,-17364.026652217148,0.0
1759.9275936191875,1853.377078855074,3890.8664352361843,-3863.8331318736937,-9606.873842599483,-7391.965035339791,-5636.098391697084,-17375.876051708638,0.0
1772.670163926617,1854.5322464436915,3891.4618824468116,-3862.1182439070863,-9605.123227800239,-7390.762231974324,-5636.431842135035,-17398.848405094646,0.0
1780.363341887925,1853.9248902888514,3890.4258043003197,-3863.1662309977905,-9606.492756384681,-7391.798310120816,-5637.241650341489,-17428.323042020707,0.0
1782.8404022841355,1857.068851560965,3894.3200290578234,-3859.617365622451,-9602.396079575567,-7387.546817036936,-5632.501890544893,-17446.29363883745,0.0
1788.7353296693482,1861.8324292459852,3898.500068476429,-3855.2944188732945,-9597.382414062082,-7382.140156364438,-5627.261955091371,-17442.554230354708,0.0
1769.0855717186394,1850.066392363985,3885.864678666913,-3866.083922329866,-9608.672093175579,-7393.775194860099,-5638.932720419671,-17445.376650133083,0.0
1768.6211228943498,1847.0057937013594,3882.411084845273,-3868.060807069149,-9612.030415443518,-7396.240346312097,-5642.112408524422,-17418.41480043587,0.0
1782.6379502325221,1853.901072400426,3890.4853490213827,-3861.915791855473,-9606.695208436297,-7390.297783150035,-5636.157936418146,-17381.592344930657,0.0
1782.7094038977973,1853.5557130182622,3890.0923538623683,-3862.630328508226,-9607.171566204797,-7390.726505141686,-5635.717305482282,-17359.203529811064,0.0
1790.7479412412692,1856.9735800072644,3894.1175770062105,-3859.105281021311,-9603.598882941033,-7387.439636539022,-5632.835340982845,-17347.98530436284,0.0
1798.071941931988,1855.8779571397097,3893.3792224650324,-3859.3791867381997,-9603.801334992646,-7387.963630084374,-5633.180700365009,-17366.444167892296,0.0
1789.9976777558786,1852.4958169833453,3890.1876254160684,-3863.428227770467,-9607.37401825641,-7392.417575219868,-5636.003120143384,-17410.161902096566,0.0
1789.1878695494252,1856.8068547882888,3894.6772973842003,-3858.688467973872,-9602.848619455643,-7388.118446359138,-5631.811171780566,-17433.77733847006,0.0
1780.3514329437123,1855.3182367617198,3892.95050047338,-3858.640832197021,-9603.003435730405,-7388.416169964451,-5631.668264450015,-17447.162991764962,0.0
1790.164402974854,1852.2100023222442,3890.0089912528806,-3861.641886138584,-9604.730232641225,-7389.4165212783055,-5634.716954168428,-17446.11500467426,0.0
1782.1258656313823,1851.7336445537421,3890.116171750793,-3862.1658796839365,-9604.33723748221,-7389.487974943581,-5635.80066809177,-17428.394495685985,0.0
1785.66282206251,1854.8061521605803,3891.8786954942507,-3861.725248748072,-9603.563156108394,-7388.678166737128,-5633.287880862921,-17404.88623981041,0.0
1797.8933077687996,1859.5340030129628,3895.2489267064025,-3858.7241948065093,-9602.193627523951,-7386.093925843004,-5630.239191144508,-17367.897059086226,0.0
1790.8789396276075,1858.6408321970216,3894.058032285148,-3858.9266468581227,-9602.455624296628,-7388.0231748054375,-5630.834638355136,-17361.894951203103,0.0
1790.5454891896557,1850.435569634574,3886.2457648817144,-3866.822276871044,-9609.88680548526,-7394.644547787615,-5635.919757533896,-17364.026652217148,0.0
1806.265295550223,1854.2940675594405,3891.950149159526,-3860.9511673742563,-9603.872788657922,-7387.296729208472,-5630.215373256084,-17372.243823723806,0.0
1773.8729672920847,1846.112622885418,3884.233153309793,-3867.9178997385984,-9612.661589486785,-7396.014076372059,-5640.016434343013,-17411.674338011562,0.0
1783.6502104905887,1857.4142109431289,3895.784829195967,-3856.7115832345885,-9601.526726648048,-7384.295675266909,-5629.798560208645,-17430.01411209889,0.0
1779.112902745607,1851.8289161074426,3889.35399932119,-3863.6783155989306,-9607.564561363812,-7388.975890342441,-5633.371243472409,-17452.74828660065,0.0
1779.3987174067083,1846.934340036084,3884.5427858593193,-3868.25135017655,-9613.090311478436,-7396.0617121489095,-5639.659166016637,-17464.264235654187,0.0
1811.8386814416967,1853.5318951298373,3890.5091669098074,-3862.868507392477,-9609.767716043134,-7396.20461947946,-5637.158287732002,-17444.447752484502,0.0
1803.2285147760224,1857.4737556641915,3894.5820258305,-3858.152565484307,-9603.991878100047,-7388.785347235041,-5630.632186303523,-17415.794832709104,0.0
1779.4463531835584,1848.5658653932035,3885.2335046236476,-3866.6674605962808,-9611.351605623402,-7396.966791909063,-5638.670723646995,-17395.64489910147,0.0
1779.0890848571821,1852.7220869233838,3888.84191472005,-3863.285320439916,-9607.016749930035,-7391.58394912499,-5635.812577035983,-17369.08795350748,0.0
1794.5349855008603,1857.1045783936024,3893.2124972460565,-3859.736455064576,-9602.78907473458,-7388.69007568134,-5633.240245086072,-17359.620342858503,0.0
1801.1801763714639,1860.03417866989,3896.5827284582083,-3855.032422100619,-9597.251415675742,-7382.616514132939,-5627.690677083023,-17370.886204083574,0.0
1781.1493322059532,1857.068851560965,3892.962409417593,-3857.6523898273795,-9599.66893135089,-7384.140858992146,-5630.084374869746,-17398.836496150434,0.0
1789.7833167600525,1853.7938919025132,3889.1039114927266,-3861.4632519753964,-9603.598882941033,-7386.808462495757,-5632.311347437493,-17433.753520581635,0.0
1774.0158746226352,1851.3763762273654,3888.0678333462347,-3864.535759582234,-9607.862284969126,-7393.346472868448,-5636.753383628774,-17460.13183201243,0.0
1762.2736556290602,1846.9581579245091,3883.649615043378,-3868.191805455487,-9612.018506499306,-7397.586057008116,-5639.20662613656,-17456.821145521342,0.0
1766.2631519402648,1842.9091168922419,3879.7911171185115,-3871.466765113939,-9616.019911754724,-7398.800769317796,-5641.552688146432,-17439.35072436153,0.0
1789.747589927415,1854.889514770068,3891.235612506773,-3860.6534437689425,-9605.540040847678,-7387.653997534848,-5631.561083952102,-17414.711118785763,0.0
1790.5573981338684,1851.8170071632298,3888.246467509423,-3863.2257757188536,-9607.326382479561,-7389.487974943581,-5632.168440106942,-17385.855746958754,0.0
1777.9696441012022,1848.0418718478513,3884.923872074121,-3866.0124686645904,-9610.946701520175,-7394.156281074901,-5635.824485980195,-17363.46693183916,0.0
1779.5178068488337,1847.5774230235618,3884.8047826319957,-3867.0961825879326,-9611.518330842378,-7396.788157745875,-5636.705747851925,-17351.962891729836,0.0
1791.1528453444957,1852.1861844338189,3888.7823699989876,-3861.9515186881104,-9606.909569432122,-7390.321601038459,-5632.025532776392,-17356.76219624749,0.0
1794.654074942986,1858.4383801454082,3894.451027444162,-3856.3066791313618,-9601.693451867024,-7383.628774391006,-5628.202761684162,-17385.962927456665,0.0
1767.418319528882,1852.948356863422,3888.9252773295384,-3862.7613268945643,-9606.885751543696,-7390.321601038459,-5633.252154030284,-17418.117076830553,0.0
1773.5633347425583,1850.1021191966227,3886.2100380490765,-3865.8933792224652,-9608.779273673492,-7392.870115099945,-5634.466866339964,-17436.12340047993,0.0
1780.4943402742629,1851.3406493947277,3887.6986560756454,-3863.7974050410558,-9607.13583937216,-7391.107591356488,-5634.085780125163,-17448.842152898935,0.0
1782.137774575595,1851.6145551116165,3886.888847869192,-3863.9403123716065,-9606.540392161533,-7392.084124781918,-5636.074573808659,-17439.326906473107,0.0
1809.9570682561136,1851.9480055495678,3886.888847869192,-3863.2257757188536,-9604.885048915989,-7389.273613947756,-5633.168791420796,-17411.019346079873,0.0
1826.522409655772,1853.6748024603878,3888.6037358357994,-3861.641886138584,-9604.28960170536,-7388.154173191775,-5632.085077497454,-17380.032273238816,0.0
1794.654074942986,1846.9462489802966,3882.375358012635,-3868.3942575071005,-9610.899065743326,-7396.621432526898,-5640.218886394627,-17365.229455582616,0.0
1766.5013308245157,1848.815953221667,3885.483592452111,-3864.2975806979834,-9606.659481603658,-7391.703038567116,-5637.598918667865,-17361.28759504826,0.0
1768.430579786949,1846.886704259234,3882.30390434736,-3868.489529060801,-9610.601342138012,-7393.679923306399,-5638.730268368057,-17375.816506987572,0.0
1778.2554587623033,1846.9462489802966,3882.542083231611,-3869.1683388809165,-9612.387683769895,-7399.300944974722,-5641.159692987418,-17401.932821645696,0.0
1793.5822699638563,1857.7238434926553,3893.3315866881817,-3857.0212157841147,-9599.788020793016,-7386.236833173554,-5630.513096861398,-17424.41690831899,0.0
1772.3605313770906,1859.0338273560355,3894.7487510494757,-3856.0565913028977,-9599.84756551408,-7385.296026580763,-5631.168088793088,-17441.67296848298,0.0
1771.4792695053618,1854.889514770068,3892.1764190995646,-3860.4152648846916,-9604.158603319023,-7389.440339166731,-5634.609773670515,-17446.06736889741,0.0
1779.482080016196,1853.3056251897988,3891.5928808331496,-3862.0348812975985,-9605.659130289803,-7392.072215837705,-5636.634294186649,-17435.778041097765,0.0
1778.076824599115,1852.1504576011812,3889.8899018107545,-3862.9875968346028,-9606.087852281456,-7393.560833864273,-5639.4924407976605,-17410.53107936716,0.0
1795.2495221536133,1867.5725403564345,3904.633174745893,-3847.005793701359,-9589.02233522487,-7376.328591588713,-5623.486819775992,-17368.730685181104,0.0
1789.0330532746618,1861.6418861385844,3899.1788782965446,-3852.2219112664566,-9594.107454403631,-7380.603902561018,-5629.40556504963,-17358.822443596262,0.0
1788.5328776177348,1858.6170143085963,3896.0230080802185,-3855.532597757546,-9598.87103208865,-7388.058901638075,-5633.049701978671,-17354.20177324179,0.0
1784.5433813065301,1856.6758564019506,3894.1413948946356,-3855.5921424786084,-9600.18101595203,-7387.677815423273,-5632.335165325918,-17368.492506296854,0.0
1775.7545804776678,1859.7364550645761,3897.368718776237,-3851.8884608285052,-9598.001679161134,-7385.165028194425,-5630.298735865571,-17390.262056317395,0.0
1778.2197319296656,1860.272357554141,3897.3925366646617,-3853.2103536360983,-9597.787318165309,-7385.141210306,-5629.226930886442,-17422.273298360735,0.0
1775.6831268123924,1856.7711279556509,3893.9984875640853,-3857.6523898273795,-9601.502908759625,-7386.606010444144,-5631.144270904662,-17444.650204536116,0.0
1779.5416247372589,1853.9725260657017,3891.8906044384635,-3857.9739313211185,-9602.538986906115,-7386.72509988627,-5632.239893772217,-17446.734269773315,0.0
1800.1560071691842,1853.8772545120012,3891.4618824468116,-3858.807557415997,-9602.598531627178,-7385.641385962927,-5630.858456243562,-17430.90728291483,0.0
1833.0008753073994,1856.7592190114385,3892.962409417593,-3856.640129569313,-9600.585920055257,-7383.354868674118,-5626.535509494405,-17397.586057008117,0.0
1785.3650984571964,1851.364467283153,3887.3532966934813,-3861.784793469135,-9605.278044075003,-7388.2851715781135,-5630.656004191948,-17369.278496614883,0.0
1765.1794380169226,1848.1014165689141,3884.1378817560926,-3864.4285790843214,-9607.969465467038,-7391.369588129164,-5635.514853430669,-17353.570599198527,0.0
1769.8120173156049,1846.7557058728958,3881.8156376346456,-3866.3459191025418,-9609.315176163056,-7393.799012748525,-5638.075276436367,-17345.246247193954,0.0
1782.590314455672,1849.9473029218595,3883.780613429716,-3864.7501205780604,-9608.362460626053,-7392.262758945106,-5635.717305482282,-17353.892140692267,0.0
1779.6845320678094,1847.9585092383636,3882.565901120036,-3866.5007353773053,-9609.731989210497,-7392.23894105668,-5635.3838550443315,-17386.272560006193,0.0
1778.3388213717913,1843.1115689438552,3877.6475071602526,-3871.824033440315,-9614.87665311032,-7396.418980475286,-5639.027991973371,-17426.59624510989,0.0
1788.4852418408846,1850.5070232998494,3884.7809647435706,-3864.04749286952,-9606.957205208972,-7388.940163509804,-5631.513448175251,-17432.06245050345,0.0
1779.7440767888722,1848.3038686205275,3882.20863279366,-3866.7270053173434,-9609.589081879945,-7392.2865768335305,-5633.776147575637,-17448.06807152512,0.0
1793.0225495858665,1848.9707694964302,3884.6499663572326,-3864.4643059169584,-9606.040216504605,-7388.404261020239,-5629.286475607505,-17439.58890324578,0.0
1792.5461918173644,1848.7564085006043,3884.8047826319957,-3864.642940080147,-9606.218850667794,-7389.845243269958,-5630.894183076199,-17406.172405785364,0.0
1774.2659624510989,1835.5970251457356,3872.0503033803534,-3877.8618681560783,-9620.473856890218,-7404.493244651395,-5644.982464079647,-17385.5222965208,0.0
1811.8624993301219,1849.0184052732805,3884.1497907003054,-3865.810016612977,-9608.517276900815,-7393.40601758951,-5633.597513412448,-17348.711749959806,0.0
1787.5087084154554,1850.780929016738,3884.8286005204204,-3864.7620295222723,-9607.707468694363,-7391.190953965976,-5631.632537617377,-17346.949226216348,0.0
1797.8218541035244,1852.0432771032683,3886.793576315492,-3862.4755122334627,-9605.623403457166,-7388.058901638075,-5628.84584467164,-17364.145741659275,0.0
1783.8526625422023,1848.7564085006043,3883.7329776528663,-3865.8695613340396,-9610.053530704234,-7393.775194860099,-5634.109598013588,-17393.370290756873,0.0
1755.4974663721189,1843.8499234850333,3878.397770645643,-3870.716501628548,-9615.293466157756,-7398.431592047207,-5639.075627750222,-17430.216564150505,0.0
1778.9819043592688,1853.9606171214891,3888.3417390631234,-3860.748715322643,-9604.7064147528,-7389.035435063503,-5629.381747161206,-17439.719901632117,0.0
1779.77980362151,1848.8993158311548,3884.066428090817,-3866.0601044414407,-9609.13654199987,-7392.381848387231,-5633.97859962725,-17444.43584354029,0.0
1779.3868084624958,1843.4212014933814,3878.874128414145,-3871.002316289649,-9612.256685383556,-7394.573094122341,-5637.896642273179,-17428.84703556606,0.0
1798.4530281467896,1853.4128056877116,3888.6990073895,-3861.189346258507,-9604.00378704426,-7390.0596042657835,-5629.298384551717,-17397.89568955764,0.0
1802.0614382431927,1857.5452093294668,3892.533687425941,-3856.9140352862014,-9599.037757307626,-7384.152767936358,-5625.558976068976,-17366.94434354922,0.0
1775.5521284260544,1845.0646357947135,3879.5529382342606,-3870.4306869674465,-9612.661589486785,-7396.609523582687,-5639.754437570337,-17357.762547561346,0.0
1778.743725475018,1845.2670878463268,3880.172203333313,-3870.9546805127993,-9612.97122203631,-7396.383253642648,-5639.9092538451005,-17348.711749959806,0.0
1790.6645786317813,1849.2565841575315,3883.6138882107402,-3866.3578280467545,-9609.184177776719,-7392.429484164081,-5636.086482752872,-17363.395478173883,0.0
1781.470873699692,1844.9693642410132,3878.3144080361553,-3868.8467973871775,-9611.780327615055,-7394.573094122341,-5637.38455767204,-17394.704092508677,0.0
1777.8743725475017,1843.516473047082,3876.968697340137,-3870.799864238036,-9613.864392852252,-7396.728613024812,-5637.098743010938,-17428.966125008188,0.0
1778.0530067106902,1845.2313610136894,3879.8268439511494,-3869.3231551556796,-9611.958961778242,-7397.169243960677,-5636.098391697084,-17438.00501366551,0.0
1775.8022162545178,1844.8860016315252,3880.922466818704,-3868.572891670289,-9610.815703133838,-7397.645601729178,-5637.158287732002,-17433.45579697632,0.0
1784.2456577012165,1849.6733972049708,3886.638760040729,-3863.3329562167664,-9605.742492899291,-7394.096736353838,-5636.300843748697,-17429.08521445031,0.0
1792.5938275942146,1851.7336445537421,3887.0912999208053,-3863.344865160979,-9606.552301105745,-7393.930011134863,-5637.837097552117,-17409.530728053305,0.0
1784.8768317444815,1839.3959783495393,3874.265367003888,-3875.1228109871918,-9617.472802948654,-7404.278883655569,-5648.388422124437,-17392.072215837703,0.0
1799.7749209543827,1840.539236993944,3876.682882679036,-3871.9193049940154,-9613.947755461739,-7399.527214914761,-5643.100850894063,-17360.787419391334,0.0
1802.1686187411055,1844.040466592434,3880.4818358828397,-3868.644345335564,-9609.731989210497,-7395.025634002417,-5638.932720419671,-17345.091430919194,0.0
1790.1405850864292,1847.1844278645476,3882.9588962790504,-3866.6079158752177,-9608.005192299677,-7392.858206155733,-5635.776850203345,-17368.432961575792,0.0
1773.599061575196,1847.5416961909243,3882.327722235785,-3866.9651842015946,-9608.636366342942,-7393.108293984197,-5635.919757533896,-17402.790265629,0.0
1765.060348574797,1842.3374875700395,3876.5995200695484,-3872.5028432604304,-9613.923937573314,-7396.859611411151,-5639.170899303922,-17429.287666501925,0.0
1774.8375917733013,1848.9826784406428,3882.8040800042872,-3865.0359352391615,-9607.588379252238,-7390.119148986846,-5632.740069429145,-17437.588200618076,0.0
1781.1136053733157,1851.757462442167,3885.459774563686,-3863.285320439916,-9605.575767680317,-7391.214771854401,-5633.406970305048,-17438.3741909361,0.0
1778.136369320178,1843.1234778880678,3877.63559821604,-3870.8951357917363,-9612.030415443518,-7401.170649216094,-5643.31521188989,-17432.693624546715,0.0
1784.0312967053906,1845.9697155548674,3879.7553902858745,-3868.5133469492257,-9609.553355047306,-7397.407422844927,-5640.492792111515,-17405.83895534741,0.0
1802.073347187405,1852.9364479192097,3887.758200796708,-3860.105632335165,-9601.050368879547,-7386.534556778869,-5631.775444947928,-17367.003888270287,0.0
1807.9920924610428,1846.4460733233693,3882.1371791283846,-3866.107740218291,-9606.445120607832,-7390.809867751174,-5636.955835680387,-17355.368849774623,0.0
1773.3847005793702,1843.4212014933814,3878.1000470403296,-3871.0261341780747,-9612.613953709933,-7398.800769317796,-5641.695595476983,-17355.96429698525,0.0
1782.0901387987446,1848.7683174448168,3883.0065320559006,-3866.6079158752177,-9609.160359888294,-7394.751728285529,-5635.955484366534,-17367.349247652448,0.0
1781.8400509702813,1850.6142037977622,3884.245062254006,-3864.3452164748333,-9607.588379252238,-7393.751376971674,-5635.764941259133,-17394.27537051703,0.0
1765.7987031159753,1845.5529025074281,3879.886388672212,-3868.167987567062,-9609.83916970841,-7397.324060235439,-5640.016434343013,-17430.514287755817,0.0
1784.602926027593,1849.3756735996571,3883.8758849834167,-3864.1189465347948,-9604.551598478038,-7392.667663048332,-5635.931666478108,-17443.185404397973,0.0
1805.4554873437696,1852.7578137560213,3885.8051339458502,-3861.4275251427584,-9603.146343060956,-7389.76188066047,-5633.180700365009,-17448.651609791534,0.0
1788.4376060640343,1843.302112051256,3876.4089769621473,-3871.0737699549245,-9613.542851358512,-7399.467670193699,-5642.826945177176,-17438.77909503933,0.0
1768.7044855038375,1836.5259227943145,3869.9424202547325,-3877.397419331789,-9619.664048683764,-7405.958044789539,-5648.567056287625,-17412.055424226364,0.0
1779.7559857330848,1847.410697804586,3881.3154619777183,-3867.7869013522604,-9608.874545227192,-7394.680274620254,-5638.896993587033,-17365.932083291154,0.0
1795.4638831494394,1853.4604414645619,3888.1392870115096,-3862.5946016755884,-9603.789426048434,-7389.24979605933,-5633.359334528197,-17344.71034470439,0.0
1785.5913683972346,1846.8152505939586,3880.779559488153,-3868.453802228163,-9610.482252695887,-7395.275721830882,-5639.992616454588,-17363.70511072341,0.0
1781.3160574249289,1845.2313610136894,3880.136476500676,-3869.5375161515053,-9611.947052834032,-7396.990609797488,-5641.54077920222,-17374.959063004266,0.0
1761.797297860558,1847.8751466288757,3882.9469873348376,-3867.8107192406856,-9610.386981142186,-7398.205322107169,-5640.0997969525015,-17395.597263324617,0.0
1770.6694612989086,1852.4719990949202,3887.901108127259,-3862.4755122334627,-9603.301159335719,-7390.238238428972,-5634.050053292525,-17416.50936936186,0.0
1778.8389970287183,1854.0201618425517,3889.35399932119,-3861.046438927957,-9602.955799953555,-7391.321952352314,-5633.32360769556,-17437.421475399096,0.0
1775.8617609755806,1845.9101708338046,3880.660470046028,-3869.847148701032,-9610.946701520175,-7398.133868441893,-5639.468622909236,-17445.245651746744,0.0
1771.1220011789856,1842.111217630001,3876.1588891336837,-3873.6222840164105,-9615.68646131677,-7401.861367980421,-5642.5530394602865,-17432.169631001365,0.0
1772.7654354803176,1841.8254029688999,3875.622986644119,-3873.967643398574,-9616.210454862123,-7403.278532341715,-5643.1961224477645,-17406.160496841152,0.0
1776.6120244609713,1844.1357381461346,3877.742778713953,-3871.9550318266533,-9612.78067892891,-7400.444203619128,-5640.278431115689,-17379.99654640618,0.0
1793.7609041270446,1851.102470510477,3883.6972508202284,-3865.1192978486492,-9606.099761225667,-7394.43018679179,-5633.966690683037,-17361.23995927141,0.0
1790.8789396276075,1849.9711208102844,3884.114063867668,-3864.3928522516835,-9605.325679851854,-7393.013022430496,-5634.145324846226,-17347.50894659434,0.0
1773.277520081457,1851.6621908884667,3886.0790396627385,-3861.7967024133472,-9604.110967542172,-7390.488326257436,-5632.3589832143425,-17348.271119023942,0.0
1768.609213950137,1845.0050910736509,3879.4814845689853,-3868.048898124937,-9610.994337297027,-7398.086232665042,-5638.956538308096,-17385.974836400877,0.0
1777.4218326674247,1846.3746196580942,3880.493744827052,-3868.4776201165887,-9610.136893313724,-7395.835442208871,-5637.110651955151,-17424.46454409584,0.0
1778.3150034833661,1849.2089483806812,3882.9827141674755,-3866.131558106716,-9606.611845826807,-7393.179747649471,-5634.824134666341,-17438.219374661337,0.0
1777.8148278264391,1846.1007139412054,3879.1480341310344,-3870.109145473708,-9610.863338910689,-7399.134219755747,-5639.504349741874,-17443.697488999114,0.0
1766.9062349277424,1844.25482758826,3877.159240447538,-3871.347675671813,-9611.66123817293,-7399.884483241138,-5640.480883167303,-17425.25053441387,0.0
1771.5507231706372,1844.8026390220375,3878.8384015815077,-3869.6566055936314,-9610.410799030613,-7397.836144836579,-5639.373351355535,-17396.716704080598,0.0
1796.8929564549455,1848.792135333242,3883.2923467170017,-3864.7143937454225,-9605.694857122442,-7392.310394721956,-5635.2647656022045,-17366.360805282806,0.0
1813.6012051851542,1852.6744511465336,3887.3532966934813,-3859.6769103435136,-9601.455272982774,-7387.42772759481,-5630.656004191948,-17346.53241316891,0.0
1798.4768460352147,1846.9581579245091,3880.315110663864,-3868.76343477769,-9611.89941705718,-7399.300944974722,-5639.1947171923475,-17345.674969185606,0.0
1752.5321392631936,1838.633805919936,3872.121757045629,-3877.7070518813152,-9619.914136512227,-7407.708659588784,-5648.638509952901,-17367.76606069989,0.0
1763.5836394924409,1843.8975592618835,3877.8380502676537,-3871.9788497150785,-9613.650031856425,-7401.134922383456,-5643.1961224477645,-17391.810219065028,0.0
1785.8414562256983,1844.576369081999,3878.731221083595,-3870.4187780232346,-9612.13759594143,-7399.396216528424,-5640.314157948326,-17418.760159818034,0.0
1788.3542434545466,1846.5175269886447,3880.422291161777,-3868.7277079450523,-9609.910623373686,-7397.347878123865,-5638.0990943247925,-17429.918840545193,0.0
1792.796279645828,1856.3424059639992,3890.47344007717,-3858.35501753592,-9599.240209359239,-7386.91564299367,-5627.476316087197,-17416.164009979697,0.0
1787.5920710249432,1845.5409935632156,3880.493744827052,-3869.0016136619406,-9609.303267218844,-7396.0617121489095,-5636.431842135035,-17423.98818632734,0.0
1762.2141109079973,1840.5630548823694,3876.075526524196,-3873.4674677416474,-9613.149856199498,-7400.765745112866,-5641.195419820056,-17418.248075216892,0.0
1787.1276222006538,1842.063581853151,3876.8019721211613,-3871.3714935602384,-9611.994688610881,-7400.301296288578,-5640.93342304738,-17381.592344930657,0.0
1783.0547632799614,1848.87549794273,3883.2328019959386,-3864.5476685264466,-9604.968411525475,-7392.167487391405,-5632.918703592332,-17351.53416973818,0.0
1764.0480883167302,1842.242216016339,3876.206524910534,-3870.871317903311,-9610.660886859076,-7395.561536491982,-5636.253207971847,-17347.449401873277,0.0
1770.205012474619,1841.7896761362622,3876.5518842926977,-3870.406869079022,-9609.98207703896,-7396.704795136387,-5637.47982922574,-17359.83470385433,0.0
1770.8600044063094,1840.0509702812296,3874.563090609202,-3872.91965630787,-9612.340047993044,-7398.086232665042,-5638.69454153542,-17391.90549061873,0.0
1771.9675362180767,1845.3385415116022,3879.9816602259125,-3867.5725403564347,-9607.5526524196,-7392.465210996719,-5632.7757962617825,-17416.46173358501,0.0
1781.8519599144936,1848.815953221667,3882.9827141674755,-3863.690224543143,-9604.09905859796,-7390.0596042657835,-5629.739015487582,-17429.859295824128,0.0
1791.5577494477227,1851.3406493947277,3885.9480412764005,-3861.1298015374446,-9602.169809635527,-7390.22632948476,-5628.833935727427,-17431.740909009714,0.0
1783.757390988502,1845.3266325673897,3880.362746440714,-3866.703187428918,-9607.112021483736,-7395.275721830882,-5636.5866584097985,-17427.822866363782,0.0
1780.4228866089877,1833.6915940717274,3869.549425095718,-3877.4450551086393,-9617.925342828732,-7406.1009521200895,-5646.435355273578,-17409.352093890117,0.0
1780.9349712101273,1847.7917840193877,3884.268880142431,-3862.1182439070863,-9601.81254130915,-7389.988150600508,-5631.846898613203,-17364.574463650923,0.0
1778.2078229854533,1843.6117446007822,3880.291292775439,-3866.417372767817,-9605.92112706248,-7393.691832250612,-5636.050755920233,-17351.81998439928,0.0
1780.303797166862,1846.398437546519,3882.6016279526734,-3864.65484902436,-9603.432157722056,-7391.691129622904,-5634.264414288351,-17349.80737282736,0.0
1768.7402123364752,1850.2092996945355,3887.5676576893075,-3860.0937233909526,-9599.978563900417,-7386.403558392531,-5628.786299950578,-17358.608082600436,0.0
1759.2368748548597,1843.5045641028694,3880.4461090502023,-3866.715096373131,-9608.95790783668,-7395.859260097295,-5637.277377174127,-17393.977646911713,0.0
1758.16506987573,1838.5147164778105,3875.0037215450666,-3871.859760272953,-9613.507124525875,-7402.266272083649,-5642.636402069775,-17421.46349015428,0.0
1764.2029045914933,1840.2772402212681,3876.98060628435,-3871.5739456118517,-9613.459488749026,-7402.075728976248,-5641.731322309621,-17439.326906473107,0.0
1775.7307625892424,1842.8852990038167,3879.326668294222,-3867.8345371291107,-9609.767716043134,-7396.800066690088,-5637.753734942628,-17441.756331092463,0.0
1778.3388213717913,1842.9567526690919,3879.41003090371,-3867.1319094205705,-9608.410096402902,-7396.728613024812,-5638.670723646995,-17429.1685770598,0.0
1768.1804919584854,1843.0996599996429,3879.7434813416617,-3867.203363085846,-9608.505367956604,-7397.693237506029,-5639.063718806009,-17403.087989234315,0.0
1767.5135910825825,1843.7546519313328,3880.172203333313,-3867.1795451974203,-9607.79083130385,-7397.181152904889,-5638.563543149082,-17372.11282533747,0.0
1768.9426643880888,1844.2429186440477,3881.0177383724044,-3866.7984589826187,-9607.933738634401,-7395.585354380408,-5637.837097552117,-17352.04625433932,0.0
1778.850905972931,1844.2786454766854,3880.2793838312264,-3867.08427364372,-9608.374369570267,-7395.156632388755,-5636.908199903538,-17347.83048808808,0.0
1787.5325263038806,1843.0043884459424,3878.4930421993436,-3868.060807069149,-9608.267189072352,-7394.2515526286015,-5636.455660023461,-17352.665519438375,0.0
1772.1461703812647,1842.8852990038167,3877.7189608255276,-3868.8467973871775,-9610.672795803288,-7397.335969179652,-5639.802073347187,-17380.00845535039,0.0
1789.3545947684006,1844.6478227472742,3881.9466360209835,-3865.4527482866,-9607.802740248062,-7395.037542946629,-5637.360739783615,-17419.712875355035,0.0
1799.0603843016297,1838.9196205810374,3875.4205345925056,-3873.1697441363335,-9613.935846517526,-7400.92056138763,-5642.124317468635,-17455.237255941072,0.0
1758.3198861504932,1840.7655069339828,3876.242251743172,-3871.431038281301,-9612.054233331944,-7400.170297902239,-5640.7786067726165,-17446.091186785834,0.0
1738.8606713071852,1832.3220654872841,3868.5252558934385,-3878.433497478281,-9620.557219499706,-7409.23300444799,-5649.591225489904,-17436.86175502111,0.0
1770.6932791873337,1843.909468206096,3879.886388672212,-3867.08427364372,-9608.636366342942,-7397.824235892367,-5639.15899035971,-17403.897797440768,0.0
1765.1913469611352,1842.6590290637782,3877.8975949887163,-3868.4299843397384,-9610.017803871599,-7397.776600115516,-5639.8378001798255,-17376.197593202374,0.0
1769.3594774355279,1836.6450122364402,3872.5028432604304,-3873.6699197932608,-9614.674201058704,-7401.647006984596,-5642.422041073948,-17358.48899315831,0.0
1796.2379645232552,1843.5760177681448,3879.624391899536,-3866.822276871044,-9607.564561363812,-7394.001464800138,-5636.598567354012,-17350.581454201176,0.0
1785.7580936162103,1848.0061450152136,3882.30390434736,-3862.7256000619263,-9603.717972383158,-7390.797958806962,-5634.847952554766,-17355.58321077045,0.0
1770.6337344662707,1841.6110419730737,3875.146628875617,-3869.5851519283556,-9610.327436421123,-7397.943325334492,-5640.087888008288,-17386.39164944832,0.0
1783.864571486415,1840.0628792254422,3873.8842807890865,-3870.5974121864224,-9611.10151779494,-7398.538772545119,-5640.719062051554,-17417.771717448388,0.0
1797.0239548412835,1839.3245246842641,3873.967643398574,-3871.3595846160256,-9610.958610464388,-7397.728964338667,-5641.195419820056,-17434.051244186947,0.0
1775.909396752431,1841.8492208573248,3878.1000470403296,-3868.334712786038,-9607.159657260585,-7393.120202928409,-5637.110651955151,-17438.171738884488,0.0
1757.1051738408132,1838.3003554819848,3875.0751752103415,-3871.6334903329143,-9612.864041538396,-7400.241751567515,-5641.278782429544,-17433.408161199466,0.0
1775.4330389839288,1844.1119202577095,3881.3392798661434,-3865.0597531275866,-9605.182772521302,-7392.608118327269,-5634.5502289494525,-17400.50374834019,0.0
1781.0183338196152,1847.6488766888372,3884.6142395245947,-3860.748715322643,-9599.585568741404,-7388.618622016065,-5629.59610815703,-17365.229455582616,0.0
1777.0407464526231,1844.7907300778247,3881.1963725355927,-3866.2506475488412,-9604.7064147528,-7392.965386653646,-5632.668615763869,-17347.69948970174,0.0
1763.285915887127,1835.6922966994362,3871.2524041181127,-3875.9445281378576,-9614.36456850918,-7402.051911087822,-5641.814684919109,-17352.46306738676,0.0
1773.7300599615342,1840.8488695434705,3876.9925152285623,-3869.442244597805,-9607.945647578614,-7395.680625934107,-5635.419581876969,-17365.241364526828,0.0
1779.77980362151,1846.5175269886447,3883.447162991765,-3863.154322053578,-9601.693451867024,-7389.452248110943,-5629.739015487582,-17386.54646572308,0.0
1765.5486152875117,1840.7535979897702,3876.7543363443115,-3869.382699876742,-9607.969465467038,-7393.513198087423,-5635.300492434843,-17419.17697286547,0.0
1756.4263640206977,1839.8723361180414,3874.777451605028,-3871.431038281301,-9609.874896541047,-7395.728261710958,-5637.051107234088,-17436.96893551902,0.0
1760.4873139971776,1844.0642844808592,3879.3504861826473,-3866.715096373131,-9603.765608160009,-7387.880267474887,-5630.417825307698,-17435.69467848828,0.0
1769.9072888693051,1846.3031659928188,3880.982011539767,-3866.226829660416,-9605.742492899291,-7394.585003066552,-5633.097337755521,-17416.366462031307,0.0
1772.062807771777,1841.1346842045718,3875.6944403093944,-3871.2166772854753,-9610.339345365335,-7399.967845850626,-5638.0633674921555,-17391.667311734476,0.0
1772.0151719949267,1841.5514972520111,3875.8968923610078,-3869.6446966494186,-9607.8384670807,-7396.276073144735,-5636.932017791963,-17355.821389654702,0.0
1772.4558029307912,1844.421552807236,3877.957139709779,-3867.4415419700963,-9604.956502581263,-7393.322654980022,-5632.978248313395,-17345.389154524502,0.0
1768.8235749459632,1839.9199718948917,3873.2531067458217,-3872.6576595351935,-9609.23181355357,-7395.990258483634,-5635.300492434843,-17355.857116487336,0.0
1770.5980076336332,1841.2299557582721,3875.6944403093944,-3871.0261341780747,-9607.338291423774,-7393.275019203173,-5633.037793034458,-17359.51316236059,0.0
1769.1332074954896,1840.3248759981184,3874.932267879791,-3870.406869079022,-9608.374369570267,-7394.5135494012775,-5634.574046837877,-17386.11774373143,0.0
1760.6421302719407,1837.1809147260049,3871.490583002364,-3874.8965410471533,-9613.149856199498,-7400.551384117041,-5640.516609999941,-17425.869799512926,0.0
1779.2439011319452,1838.6576238083612,3872.9315652520827,-3875.015630489279,-9612.209049606709,-7400.4799304517655,-5639.4924407976605,-17439.517449580508,0.0
1785.639004174085,1840.860778487683,3875.6825313651816,-3870.263961748471,-9607.862284969126,-7398.241048939806,-5636.943926736175,-17437.27856806855,0.0
1761.880660470046,1837.573909885019,3873.5984661279854,-3873.693737681686,-9611.303969846553,-7399.70584907795,-5638.992265140734,-17426.620062998314,0.0
1767.394501640457,1840.8726874318957,3876.337523296872,-3872.1574838782667,-9611.33969667919,-7399.19376447681,-5635.395763988543,-17397.812326948155,0.0
1779.7917125657225,1846.3746196580942,3881.410733531419,-3866.4888264330925,-9604.742141585437,-7392.989204542071,-5629.488927659118,-17361.775861760976,0.0
1772.3605313770906,1839.58652145694,3873.860462900662,-3873.550830351135,-9611.363514567616,-7400.420385730703,-5640.599972609429,-17348.592660517683,0.0
1768.5853960617121,1833.9893176770413,3867.846446073323,-3879.36239512686,-9617.651437111843,-7407.601479090871,-5648.257423738099,-17341.995105423928,0.0
1771.2172727326858,1839.8961540064665,3873.9080986775116,-3872.9911099731453,-9611.637420284504,-7399.741575910587,-5638.492089483807,-17352.415431609912,0.0
1770.3836466378073,1845.0289089620758,3878.993217856271,-3867.215272030058,-9606.540392161533,-7393.096385039984,-5631.989805943754,-17374.339797905217,0.0
1778.2197319296656,1841.289500479335,3874.753633716603,-3871.2285862296876,-9610.637068970651,-7397.728964338667,-5635.764941259133,-17408.304106799413,0.0
1809.837978813988,1847.6846035214749,3882.5897190084615,-3863.2257757188536,-9602.003084416552,-7389.214069226693,-5629.322202440143,-17418.926885037006,0.0
1794.7731643851114,1853.0079015844851,3888.079742290447,-3858.378835424345,-9596.524970078779,-7384.414764709035,-5623.963177544495,-17415.925831095446,0.0
1776.1594845808945,1840.0866971138673,3874.5511816649896,-3872.4909343162185,-9610.244073811637,-7399.777302743225,-5636.372297413973,-17417.855080057878,0.0
1763.3335516639772,1836.0733829142378,3869.204065713554,-3877.3259656665136,-9615.067196217718,-7404.052613715531,-5641.850411751746,-17396.228437367885,0.0
1756.4620908533354,1840.7178711571325,3872.8958384194448,-3873.0149278615704,-9610.4941616401,-7400.551384117041,-5638.075276436367,-17361.609136542,0.0
1771.133910123198,1839.777064564341,3872.038394436141,-3873.4674677416474,-9609.70817132207,-7399.134219755747,-5638.027640659517,-17340.32785323417,0.0
1783.066672224174,1840.8488695434705,3873.538921406923,-3871.538218779214,-9608.576821621878,-7397.800418003942,-5636.288934804485,-17333.015761487666,0.0
1789.3545947684006,1840.3963296633935,3872.8005668657443,-3872.514752204643,-9611.732691838204,-7400.039299515902,-5636.658112075074,-17344.150624326398,0.0
1777.124109062111,1845.398086232665,3878.552586920406,-3867.8107192406856,-9607.88610285755,-7395.656808045683,-5632.144622218517,-17368.56395996213,0.0
1755.354559041568,1835.7875682531367,3869.442244597805,-3877.0282420611998,-9617.020263068578,-7404.18361210187,-5641.921865417021,-17411.495703848374,0.0
1770.4789181915078,1836.0257471373875,3869.7756950357566,-3876.7067005674608,-9615.257739325121,-7402.301998916286,-5641.112057210568,-17426.822515049927,0.0
1778.767543363443,1840.6821443244949,3874.586908497627,-3872.3003912088175,-9611.542148730805,-7400.063117404326,-5637.360739783615,-17419.296062307592,0.0
1770.9552759600097,1838.1693570956465,3871.5263098350015,-3874.479727999714,-9613.304672474262,-7403.480984393329,-5639.968798566163,-17392.346121554594,0.0
1767.0967780351432,1836.9427358417538,3870.656956907485,-3875.432443536718,-9614.495566895517,-7402.635449354238,-5638.801722033333,-17364.860278312026,0.0
1781.0659695964655,1841.31331836776,3876.015981803133,-3870.990407345437,-9610.291709588488,-7397.6098748965405,-5632.34707427013,-17369.540493387558,0.0
1784.9125585771192,1844.3500991419605,3879.4814845689853,-3866.6198248194305,-9605.051774134965,-7393.275019203173,-5628.309942182076,-17350.68863469909,0.0
1784.5552902507427,1847.1606099761225,3881.8156376346456,-3863.737860319993,-9602.157900691313,-7392.215123168256,-5626.940413597632,-17329.07390095331,0.0
1779.5416247372589,1847.0653384224222,3880.219839110164,-3864.940663685461,-9603.146343060956,-7394.811273006591,-5630.739366801436,-17345.496335022417,0.0
1773.8253315152344,1846.0530781643552,3877.9095039329286,-3866.917548424744,-9604.992229413901,-7395.728261710958,-5632.918703592332,-17374.435069458916,0.0
1761.2613953709933,1832.3577923199218,3866.024377608803,-3878.874128414145,-9616.6629947422,-7405.5412317421,-5643.565299718353,-17416.640367748198,0.0
1756.0333688616836,1827.0225853126992,3861.677612971222,-3883.1256214980262,-9621.831476530448,-7409.74508904913,-5647.2332545358195,-17445.555284296268,0.0
1768.5853960617121,1837.2523683912802,3872.193210710904,-3872.514752204643,-9611.89941705718,-7402.242454195223,-5639.15899035971,-17435.718496376703,0.0
1767.6922252457707,1835.8709308626242,3869.8590576452443,-3876.4804306274223,-9614.912379942954,-7404.231247878719,-5640.635699442066,-17424.238274155803,0.0
1770.2407393072567,1834.0488623981041,3867.5010866911593,-3877.2783298896634,-9614.531293728154,-7404.243156822932,-5641.314509262182,-17397.681328561815,0.0
1794.356351337672,1848.1133255131267,3881.756092913583,-3862.4040585681873,-9598.156495435896,-7387.999356917013,-5627.166683537671,-17357.333825569694,0.0
1797.9885793225,1846.1602586622682,3879.3028504057975,-3866.131558106716,-9602.324625910289,-7392.524755717782,-5630.441643196122,-17342.721551020895,0.0
1791.736383610911,1843.9213771503087,3878.302499091943,-3867.203363085846,-9603.563156108394,-7392.477119940931,-5631.64444656159,-17338.31524166225,0.0
1779.0890848571821,1838.478989645173,3873.705646625898,-3872.621932702556,-9610.279800644274,-7400.408476786491,-5636.229390083422,-17353.43960081219,0.0
1775.0876796017649,1837.740635103995,3872.5862058699186,-3872.91965630787,-9611.006246241239,-7400.063117404326,-5635.729214426495,-17382.175883197073,0.0
1768.4186708427362,1842.3851233468895,3877.3497835549388,-3868.1560786228497,-9605.492405070827,-7394.811273006591,-5631.2276335141505,-17411.94824372845,0.0
1765.0960754074347,1848.8516800543046,3883.3757093264894,-3862.153970739724,-9599.728476071952,-7389.547519664644,-5625.868608618503,-17424.17872943474,0.0
1763.9647257072425,1841.9087655783876,3876.766245288524,-3868.775343721902,-9606.040216504605,-7396.418980475286,-5633.061610922883,-17431.669455344436,0.0
1764.4172655873194,1840.3010581096933,3875.1228109871918,-3870.5140495769347,-9606.838115766846,-7396.657159359537,-5633.609422356661,-17416.771366134533,0.0
1766.3822413823902,1838.9434384694623,3873.1340173036956,-3873.6341929606233,-9609.160359888294,-7397.669419617604,-5634.288232176777,-17395.14472344454,0.0
1774.0277835668478,1836.8474642880535,3871.0261341780747,-3875.4919882577806,-9611.554057675017,-7399.872574296925,-5636.932017791963,-17362.95484723802,0.0
1780.9587890985524,1839.7294287874909,3873.9200076217244,-3871.6811261097646,-9609.934441262109,-7397.943325334492,-5634.157233790438,-17337.33870823682,0.0
1786.6869912647894,1845.9578066106549,3880.1483854448884,-3865.91719711089,-9603.360704056782,-7390.988501914363,-5627.523951864047,-17326.32293484021,0.0
1787.4015279175424,1844.5882780262116,3878.481133255131,-3867.477268802734,-9604.789777362288,-7391.595858069202,-5627.02377620712,-17338.660601044416,0.0
1772.932160699293,1833.3224168011384,3867.1200004763577,-3878.874128414145,-9616.52008741165,-7405.719865905288,-5639.385260299749,-17377.269398181503,0.0
1792.2722861004756,1838.8124400831246,3872.2408464877544,-3872.4909343162185,-9610.887156799114,-7398.431592047207,-5633.4546060818975,-17402.825992461636,0.0
1821.7588319707515,1840.8726874318957,3873.9319165659367,-3870.871317903311,-9609.338994051483,-7398.812678262008,-5634.347776897839,-17423.690462722025,0.0
1786.3892676594755,1844.945546352588,3879.3981219594975,-3864.881118964398,-9603.313068279931,-7392.2865768335305,-5628.595756843177,-17426.858241882564,0.0
1760.6540392161533,1839.2292531305636,3874.2296401712506,-3870.53786746536,-9608.826909450343,-7398.979403480984,-5633.502241858748,-17413.02004870758,0.0
1772.8368891455927,1837.7525440482073,3872.336118041455,-3873.1340173036956,-9611.57787556344,-7400.26556945594,-5634.907497275829,-17393.82283063695,0.0
1786.5202660458135,1844.7311853567621,3878.862219469933,-3866.0124686645904,-9604.09905859796,-7391.572040180778,-5630.57264158246,-17356.47638158639,0.0
1781.947231468194,1848.1609612899767,3881.9109091883456,-3862.5350569545258,-9599.883292346716,-7388.380443131814,-5627.726403915661,-17324.250778547226,0.0
1773.8729672920847,1839.6103393453654,3873.086381526846,-3870.740319516973,-9609.291358274631,-7399.229491309447,-5635.574398151732,-17327.91873336469,0.0
1778.9461775266313,1843.016297390155,3876.766245288524,-3867.3462704163962,-9606.576118994171,-7396.549978861624,-5631.656355505803,-17352.236797446723,0.0
1791.5696583919353,1849.9473029218595,3883.625797154953,-3860.724897434218,-9599.287845136088,-7387.784995921186,-5623.760725492882,-17369.993033267634,0.0
1785.8176383372731,1846.0054423875051,3879.3862130152847,-3864.7977563549102,-9602.97961784198,-7389.880970102595,-5627.440589254559,-17400.217933679087,0.0
1769.4190221565907,1837.4071846660433,3870.3115975253213,-3873.3483782995218,-9611.875599168756,-7400.170297902239,-5636.789110461412,-17425.607802740247,0.0
1777.1122001178985,1842.4208501795272,3874.432092222864,-3871.0261341780747,-9609.827260764196,-7396.95488296485,-5632.287529549068,-17420.355958342512,0.0
1791.8316551646114,1841.206137869847,3873.1697441363335,-3871.5501277234266,-9609.874896541047,-7397.800418003942,-5632.823432038633,-17403.945433217617,0.0
1828.2372976223792,1845.5171756747905,3878.19531859403,-3866.381645935179,-9604.837413139137,-7393.679923306399,-5629.369838216992,-17373.922984857778,0.0
1791.6411120572106,1841.2299557582721,3874.1939133386127,-3870.4664138000844,-9609.148450944082,-7397.800418003942,-5633.097337755521,-17344.74607153703,0.0
1788.8663280556862,1840.2415133886304,3873.336469355309,-3869.2874283230417,-9608.11237279759,-7396.430889419498,-5632.263711660643,-17327.29946826564,0.0
1800.060735615484,1841.5872240846486,3875.0275394334913,-3868.5371648376513,-9607.671741861725,-7397.395513900715,-5634.204869567288,-17327.12083410245,0.0
1795.844969364241,1845.243269957902,3877.814232379228,-3866.0124686645904,-9604.944593637052,-7394.084827409625,-5630.036739092896,-17329.967071769253,0.0
1780.303797166862,1848.36341334159,3879.945933393275,-3863.690224543143,-9604.468235868548,-7393.263110258959,-5626.892777820783,-17352.748882047865,0.0
1798.0243061551378,1842.3017607374018,3874.289184892313,-3869.0849762714283,-9609.791533931559,-7398.110050553468,-5631.453903454189,-17387.189548710558,0.0
1792.3794665983885,1840.574963826582,3873.1101994152705,-3870.263961748471,-9610.708522635925,-7399.05085714626,-5633.061610922883,-17408.75664667949,0.0
1779.910802007848,1846.9581579245091,3878.2548633150927,-3865.5480198403006,-9605.051774134965,-7390.41687259216,-5625.689974455315,-17414.04421790986,0.0
1767.8351325763215,1837.9311782113957,3868.953977885091,-3874.503545888139,-9612.887859426823,-7399.562941747399,-5633.740420742998,-17405.291143913633,0.0
1795.4400652610143,1842.4089412353148,3873.336469355309,-3869.3350640998924,-9607.564561363812,-7397.1930618491015,-5629.560381324393,-17376.935947743554,0.0
1803.2404237202352,1843.3140209954686,3875.4919882577806,-3867.03663786687,-9605.051774134965,-7392.7391167136075,-5627.190501426096,-17344.603164206477,0.0
1787.7230694112814,1840.0628792254422,3871.740670830827,-3871.6930350539774,-9610.31552747691,-7397.407422844927,-5632.537617377531,-17323.464788229197,0.0
1773.5276079099208,1839.3483425726893,3870.2996885811085,-3873.812827123811,-9612.947404147886,-7401.492190709832,-5636.348479525547,-17314.294901185534,0.0
1808.4208144526945,1854.3297943920782,3885.3645030099856,-3858.486015922258,-9596.870329460942,-7384.402855764822,-5619.818864958527,-17322.10716858897,0.0
1786.8418075395525,1841.6467688057116,3874.0629149522747,-3870.037691808433,-9608.25528012814,-7396.800066690088,-5631.942170166904,-17368.373416854727,0.0
1776.2904829672325,1837.5262741081688,3871.0975878433496,-3873.074472582633,-9611.66123817293,-7401.71846064987,-5635.693487593858,-17396.72861302481,0.0
1792.1651056025628,1848.6611369469038,3881.875182355708,-3862.2135154607868,-9600.061926509905,-7390.7026872532615,-5625.606611845827,-17403.754890110216,0.0
1783.3643958294876,1846.9938847571468,3880.386564329139,-3864.7620295222723,-9603.182069893594,-7393.810921692738,-5628.286124293651,-17412.793778767544,0.0
1786.7108091532145,1850.09021025241,3883.959247592905,-3862.046790241811,-9600.443012724707,-7390.107240042634,-5624.12990276347,-17389.90478799102,0.0
1786.6512644321517,1846.4937091002196,3880.0888407238253,-3863.987948148457,-9602.038811249187,-7390.083422154209,-5625.094527244687,-17371.58883179212,0.0
1793.9038114575953,1844.8860016315252,3877.58796243919,-3866.834185815256,-9605.063683079177,-7395.049451890843,-5629.77474232022,-17346.6157757784,0.0
1791.653021001423,1845.2670878463268,3877.159240447538,-3867.0128199784444,-9606.242668556219,-7396.145074758398,-5629.250748774867,-17328.264092746856,0.0
1776.3619366325079,1842.111217630001,3874.979903656641,-3869.3231551556796,-9608.088554909165,-7397.181152904889,-5631.64444656159,-17331.515234516883,0.0
1769.7881994271797,1841.4681346425232,3874.7298158281774,-3869.1445209924914,-9608.481550068178,-7396.847702466937,-5631.918352278479,-17343.424178729434,0.0
1779.6845320678094,1839.1935262979262,3872.145574934054,-3871.2047683412625,-9610.35125430955,-7398.264866828232,-5632.275620604854,-17363.514567616006,0.0
1787.9612482955324,1848.92313371958,3880.2436569985884,-3863.6425887662926,-9602.955799953555,-7390.142966875272,-5623.594000273906,-17388.64243990449,0.0
1786.8894433164028,1851.4835567252785,3883.506707712828,-3858.974282634973,-9598.811487367588,-7386.475012057806,-5618.604152648847,-17395.263812886667,0.0
1806.5392012671118,1851.9360966053555,3884.3046069750685,-3858.045384986394,-9595.56034559756,-7383.986042717383,-5616.008002810511,-17394.94227139293,0.0
1794.9041627714494,1851.8289161074426,3884.3284248634936,-3859.3434599055618,-9596.39397169244,-7385.7962022376905,-5617.520438725504,-17387.17763976635,0.0
1761.273304315206,1843.1830226091304,3876.6352469021854,-3865.9886507761653,-9603.420248777844,-7391.417223906014,-5622.986644119065,-17371.98182695113,0.0
1786.0439082773116,1851.25728678524,3885.7694071132123,-3856.48531329455,-9593.833548686742,-7379.841730131415,-5613.006948868948,-17338.243787996973,0.0
1782.983309614686,1849.3042199343818,3882.8398068369247,-3860.748715322643,-9598.620944260187,-7385.3793891902515,-5617.460894004442,-17323.667240280814,0.0
1787.4491636943926,1846.4937091002196,3879.683936620599,-3864.535759582234,-9601.71726975545,-7388.713893569765,-5619.247235636325,-17314.7355321214,0.0
1778.7556344192305,1843.8737413734584,3876.063617579983,-3868.013171292299,-9605.992580727754,-7393.953829023288,-5622.426923741075,-17329.50262294496,0.0
1791.2481168981963,1845.183725236839,3877.3259656665136,-3866.2506475488412,-9604.110967542172,-7391.786401176603,-5623.855997046582,-17352.92751621105,0.0
1792.5104649847267,1849.137494715406,3881.1963725355927,-3862.0229723533857,-9599.84756551408,-7386.344013671468,-5620.259495894391,-17377.638575452092,0.0
1794.9875253809373,1844.1119202577095,3877.290238833876,-3865.5361108960883,-9603.682245550519,-7389.845243269958,-5623.724998660244,-17405.11250975045,0.0
1834.1203160633793,1850.9476542357138,3884.0426102023926,-3858.81946636021,-9597.132326233617,-7383.724045944707,-5616.758266295901,-17398.87222298307,0.0
1755.8309168100702,1837.0022805628166,3869.0135226061534,-3874.0390970638496,-9613.066493590011,-7399.670122245312,-5631.823080724777,-17396.09743898155,0.0
1764.2505403683435,1844.0285576482215,3875.873074472582,-3866.5364622099423,-9604.742141585437,-7393.203565537897,-5626.285421665942,-17360.45396895338,0.0
1780.3990687205624,1845.0289089620758,3877.5760534949773,-3864.9168457970354,-9601.81254130915,-7390.559779922711,-5625.689974455315,-17329.323988781773,0.0
1805.8723003912087,1848.2800507321022,3881.4583693082686,-3861.9038829112606,-9599.585568741404,-7387.820722753824,-5620.330949559667,-17323.23851828916,0.0
1812.815214867126,1849.1732215480436,3881.1487367587424,-3862.3206959586996,-9599.490297187702,-7387.951721140162,-5620.8073073281685,-17314.664078456124,0.0
1775.7545804776678,1847.172518920335,3879.624391899536,-3864.7858474106974,-9601.53863559226,-7390.404963647948,-5624.510988978272,-17325.53694452218,0.0
1774.1825998416111,1842.694755896416,3875.0751752103415,-3869.382699876742,-9606.278395388856,-7394.406368903365,-5628.274215349438,-17356.559744195878,0.0
1778.791361251868,1844.20719181141,3875.456261425143,-3868.1084428459994,-9605.730583955079,-7394.037191632776,-5628.631483675815,-17394.90654456029,0.0
1775.4925837049916,1843.3973836049565,3874.825087381878,-3868.2870770091877,-9606.33794010992,-7395.954531650997,-5631.620628673165,-17409.030552396376,0.0
1781.6852346955181,1845.3028146789645,3877.58796243919,-3866.393554879392,-9603.515520331544,-7392.941568765221,-5628.512394233689,-17414.41339518045,0.0
1802.1924366295304,1851.0310168452015,3883.7091597644408,-3860.6534437689425,-9597.346687229443,-7385.677112795564,-5620.450039001792,-17395.823533264658,0.0
1813.2677547472028,1853.781982958301,3886.5315795428155,-3857.5809361621045,-9595.893796035512,-7385.7962022376905,-5618.997147807861,-17371.160109800465,0.0
1767.2039585330563,1840.0271523928045,3873.2769246342464,-3871.3834025044507,-9608.20764435129,-7398.074323720831,-5631.370540844701,-17354.92821883876,0.0
1778.00537093384,1845.5052667305781,3877.9095039329286,-3865.202660458137,-9601.788723420725,-7390.857503528025,-5625.511340292127,-17323.536241894475,0.0
1794.7493464966865,1851.6145551116165,3883.8639760392043,-3859.926998171977,-9594.988716275358,-7384.652943593285,-5619.497323464788,-17309.019238899375,0.0
1791.5458405035101,1848.553956448991,3881.13682781453,-3863.725951375781,-9600.252469617306,-7389.511792832006,-5623.546364497055,-17328.061640695243,0.0
1770.0025604230057,1837.7049082713572,3870.02578286422,-3874.908449991366,-9612.471046379382,-7401.254011825582,-5635.3838550443315,-17369.92157960236,0.0
1787.2109848101416,1844.7073674683372,3877.087786782263,-3867.5725403564347,-9604.194330151659,-7392.79866143467,-5627.53586080826,-17392.953477709434,0.0
1804.3717734204274,1852.793540588659,3884.792873687783,-3859.581638789813,-9596.239155417676,-7387.261002375834,-5621.224120375608,-17403.147533955376,0.0
1802.073347187405,1848.9350426637925,3880.743832655516,-3863.9522213158193,-9601.633907145962,-7392.465210996719,-5625.475613459488,-17408.72091984685,0.0
1799.953555117571,1850.6380216861874,3882.3396311799975,-3863.0709594440905,-9599.728476071952,-7389.595155441494,-5622.40310585265,-17393.144020816835,0.0
1784.150386147516,1849.0541321059181,3880.791468432366,-3863.999857092669,-9599.990472844629,-7389.988150600508,-5624.344263759296,-17378.00775272268,0.0
1771.1458190674105,1842.8614811153916,3874.825087381878,-3870.3115975253213,-9606.254577500431,-7396.466616252136,-5629.703288654944,-17359.036804592088,0.0
1779.4463531835584,1844.7669121893998,3877.4450551086393,-3866.822276871044,-9602.74143895773,-7393.16783870526,-5626.309239554367,-17325.70366974116,0.0
1784.4481097528299,1845.6481740611287,3878.4692243109184,-3865.702836115064,-9601.074186767972,-7391.63158490184,-5626.726052601806,-17318.04621861249,0.0
1781.6495078628805,1839.2292531305636,3869.9424202547325,-3873.4317409090095,-9609.862987596835,-7398.824587206222,-5633.788056519849,-17340.36358006681,0.0
1790.7241233528441,1843.9213771503087,3875.146628875617,-3866.1553759951407,-9602.348443798715,-7391.929308507154,-5628.429031624201,-17353.95168541333,0.0
1778.874723861356,1842.849572171179,3874.0629149522747,-3869.204065713554,-9604.515871645399,-7393.084476095772,-5628.476667401052,-17391.10759135649,0.0
1769.0617538302142,1841.3490452003975,3873.5865571837726,-3870.371142246384,-9605.123227800239,-7391.417223906014,-5629.417473993843,-17424.285909932656,0.0
1773.1584306393318,1841.3490452003975,3873.5984661279854,-3870.0615096968577,-9608.326733793416,-7397.788509059729,-5630.7750936340735,-17424.083457881043,0.0
1784.5552902507427,1844.0761934250718,3877.3855103875767,-3866.0481954972283,-9604.896957860201,-7394.43018679179,-5627.07141198397,-17403.15944289959,0.0
1797.250224781322,1846.3865286023067,3878.85031052572,-3865.619473505576,-9604.944593637052,-7394.084827409625,-5625.618520790039,-17373.32753764715,0.0
1801.0015422082754,1853.829618735151,3886.5315795428155,-3857.4975735526164,-9597.14423517783,-7386.641737276782,-5619.199599859475,-17336.290721146117,0.0
1800.084553503909,1853.4247146319242,3886.31721854699,-3857.354666222066,-9596.429698525077,-7385.6056591302895,-5620.283313782817,-17318.84411787473,0.0
1785.5556415645972,1851.3763762273654,3884.566603747745,-3860.0222697256772,-9598.370856431722,-7386.594101499932,-5621.521843980921,-17311.484390351372,0.0
1773.7776957383842,1846.136440773843,3879.2909414615847,-3866.846094759469,-9606.064034393032,-7394.501640457065,-5627.07141198397,-17335.19509827856,0.0
1775.218677988103,1844.123829201922,3876.1588891336837,-3868.25135017655,-9606.67139054787,-7394.43018679179,-5627.2262282587335,-17370.695660976176,0.0
1787.0085327585282,1850.780929016738,3882.9112605022,-3861.3917983101205,-9598.704306869673,-7387.784995921186,-5620.974032547145,-17381.63998070751,0.0
1787.865976741832,1853.3056251897988,3885.5193192847487,-3858.4383801454082,-9595.512709820712,-7384.200403713208,-5616.567723188501,-17393.69183225061,0.0
1782.7808575630727,1845.529084619003,3878.3263169803677,-3865.96483288774,-9602.943891009341,-7392.179396335618,-5623.463001887568,-17423.261740730377,0.0
1785.66282206251,1844.0881023692843,3875.753985030457,-3868.0846249575743,-9605.36140668449,-7398.634044098821,-5628.452849512626,-17403.421439672267,0.0
1783.4477584389756,1845.7434456148292,3877.052059949625,-3867.3343614721834,-9603.420248777844,-7396.0259853162715,-5627.738312859874,-17375.221059776944,0.0
1785.639004174085,1847.2201546971853,3878.159591761392,-3866.42928171203,-9601.050368879547,-7393.1916565936845,-5626.404511108068,-17344.210169047463,0.0
1785.0673748518823,1849.137494715406,3880.6128342691777,-3863.9641302600317,-9599.66893135089,-7391.036137691212,-5624.677714197248,-17324.58422898518,0.0
1795.975967750579,1844.0285576482215,3876.063617579983,-3867.798810296473,-9604.65877897595,-7394.501640457065,-5628.357577958926,-17321.452176657276,0.0
1814.7563727737718,1852.5672706486205,3883.6138882107402,-3860.7844421552804,-9597.703955555819,-7387.332456041109,-5620.414312169155,-17325.76321446222,0.0
1797.2978605581723,1854.1868870615276,3885.0667794046717,-3859.5697298456002,-9597.203779898893,-7388.535259406577,-5620.688217886043,-17353.53487236589,0.0
1784.4123829201922,1853.3294430782237,3884.68569318987,-3860.1294502235905,-9597.406231950506,-7388.892527732954,-5621.74811392096,-17380.758718835783,0.0
1813.708385683067,1858.998100523398,3889.7350855359914,-3855.3063278175073,-9592.285385939109,-7384.2837663226965,-5615.031469385081,-17393.286928147387,0.0
1772.1104435486272,1843.5045641028694,3873.6222840164105,-3871.5501277234266,-9607.409745089048,-7400.50374834019,-5630.417825307698,-17426.87015082678,0.0
1770.205012474619,1843.1353868322803,3873.47937668586,-3871.133314675987,-9607.612197140663,-7401.123013439244,-5632.418527935406,-17409.637908551216,0.0
1779.6607141793845,1851.3525583389403,3882.3872669568477,-3861.8205203017724,-9598.275584878023,-7391.774492232391,-5624.308536926658,-17368.409143687364,0.0
1800.2870055555225,1850.9595631799261,3882.041907574684,-3861.725248748072,-9598.347038543297,-7392.489028885144,-5626.46405582913,-17331.8129581222,0.0
1786.5440839342389,1851.8765518842927,3882.720717394799,-3861.236982035358,-9597.823044997946,-7391.524404403927,-5624.963528858349,-17301.838145539205,0.0
1778.5531823676172,1849.4471272649323,3880.8748310418537,-3863.3091383283413,-9599.871383402504,-7391.53631334814,-5623.52254660863,-17315.497704551002,0.0
1791.438660005597,1849.1732215480436,3879.9578423374874,-3864.321398586408,-9600.061926509905,-7390.238238428972,-5623.260549835954,-17338.51769371386,0.0
1799.8940103965083,1846.1483497180557,3876.5637932369104,-3867.524904579584,-9603.027253618831,-7392.381848387231,-5625.606611845827,-17356.214384813713,0.0
1785.2341000708582,1848.3395954531652,3879.017035744696,-3864.6310311359343,-9600.264378561518,-7389.976241656296,-5623.748816548668,-17383.473958116243,0.0
1785.424643178259,1846.2912570486062,3876.944879451712,-3866.131558106716,-9601.693451867024,-7391.845945897666,-5626.154423279603,-17405.02914714096,0.0
1780.8754264890645,1840.5630548823694,3871.311948839176,-3871.609672444489,-9608.279098016565,-7397.859962725004,-5632.168440106942,-17410.840711916684,0.0
1780.8277907122142,1844.7907300778247,3874.7655426608153,-3868.5848006145015,-9605.659130289803,-7395.144723444543,-5628.2384885168,-17389.273613947753,0.0
1784.1384772033036,1844.7669121893998,3874.408274334439,-3869.4779714304427,-9604.420600091698,-7393.930011134863,-5626.702234713382,-17367.218249266112,0.0
1801.3945373672896,1845.2670878463268,3876.3494322410843,-3868.1560786228497,-9602.622349515605,-7392.19130527983,-5626.225876944879,-17331.550961349523,0.0
1818.1742397627738,1859.1886436307989,3890.282896969769,-3853.746256125663,-9590.951584187304,-7381.723343316998,-5613.983482294377,-17298.94427209556,0.0
1778.505546590767,1845.3266325673897,3875.6110776999067,-3868.167987567062,-9605.59958556874,-7396.049803204696,-5627.500133975622,-17309.2335998952,0.0
1785.0435569634574,1847.7679661309626,3876.9091526190746,-3866.1672849393535,-9603.777517104221,-7393.203565537897,-5624.772985750948,-17322.916976795423,0.0
1794.570712333498,1853.115082082398,3883.2804377727894,-3860.3557201636286,-9597.191870954679,-7387.05855032422,-5618.508881095146,-17347.139769323752,0.0
1793.4989073543684,1847.8036929636003,3878.14768281718,-3865.7981076687647,-9601.693451867024,-7391.750674343966,-5623.927450711857,-17382.271154750775,0.0
1794.8684359388117,1847.3273351950982,3876.4566127389976,-3866.7984589826187,-9601.776814476512,-7391.179045021763,-5623.879814935007,-17392.822479323095,0.0
1789.4498663221011,1852.4124543738574,3881.2201904240183,-3862.1420617955114,-9596.096248087126,-7383.593047558368,-5617.270350897041,-17395.78780643202,0.0
1771.896082552801,1851.6621908884667,3880.982011539767,-3861.9515186881104,-9597.358596173655,-7384.641034649073,-5617.49662083708,-17386.236833173552,0.0
1773.4323363562203,1843.7308340429079,3873.0625636384207,-3869.2755193788294,-9604.28960170536,-7392.608118327269,-5624.7372589183105,-17364.479192097224,0.0
1796.9286832875832,1845.2670878463268,3874.3606385575886,-3868.489529060801,-9604.551598478038,-7393.144020816834,-5624.59435158776,-17334.194746964706,0.0
1774.5994128890502,1841.1704110372095,3870.2520528042587,-3873.562739295348,-9609.434265605181,-7397.788509059729,-5630.62027735931,-17321.356905103577,0.0
1774.5041413353497,1841.658677749924,3871.931213938228,-3872.038394436141,-9608.148099630227,-7396.966791909063,-5630.084374869746,-17316.27178592482,0.0
1777.6242847190383,1839.4197962379646,3869.7280592589063,-3873.157835192121,-9610.720431580137,-7398.931767704134,-5632.406618991193,-17335.778636544976,0.0
1787.0918953680161,1845.9578066106549,3876.730518455886,-3865.6909271708514,-9603.444066666269,-7391.238589742827,-5625.940062283778,-17354.368498460768,0.0
1805.3483068458565,1855.556415645971,3886.5553974312406,-3856.294770187149,-9593.643005579339,-7380.675356226294,-5617.246533008616,-17374.065892188326,0.0
1810.8859659046927,1860.5700811594547,3891.1403409530726,-3852.6982690349587,-9589.9035970966,-7374.708975175806,-5611.61360239608,-17381.60425387487,0.0
1771.264908509536,1846.4937091002196,3876.766245288524,-3867.191454141633,-9606.19503277937,-7395.335266551944,-5627.285772979797,-17403.361894951202,0.0
1764.4649013641697,1841.2775915351224,3870.978498401224,-3871.907396049803,-9610.470343751675,-7399.372398639998,-5632.29943849328,-17407.31566442977,0.0
1776.433390297783,1840.5154191055192,3870.204417027408,-3873.098290471058,-9611.363514567616,-7399.6582133011,-5633.490332914535,-17387.820722753822,0.0
1776.88593017786,1838.955347413675,3867.7869013522604,-3874.467819055502,-9613.149856199498,-7400.587110949678,-5633.728511798787,-17349.402468724136,0.0
1783.8764804306275,1844.9098195199504,3874.1224596733373,-3868.5848006145015,-9606.064034393032,-7391.774492232391,-5624.260901149808,-17325.001042032618,0.0
1777.0883822294734,1841.0394126508713,3870.656956907485,-3872.395662762518,-9609.315176163056,-7395.442447049857,-5627.833584413574,-17323.119428847036,0.0
1785.9843635562488,1845.9101708338046,3875.646804532544,-3865.631382449789,-9604.063331765321,-7390.488326257436,-5621.545661869347,-17331.12223935787,0.0
1794.1062635092085,1847.3035173066733,3876.7781542327366,-3864.273762809558,-9604.027604932686,-7391.26240763125,-5621.176484598758,-17353.03469670896,0.0
1785.4960968435341,1846.1483497180557,3876.075526524196,-3865.5361108960883,-9604.432509035913,-7392.2865768335305,-5622.939008342215,-17381.77097909385,0.0
1792.9749138090162,1847.863237684663,3878.8145836930826,-3864.0713107579445,-9602.431806408202,-7392.203214224043,-5623.534455552844,-17405.6365032958,0.0
1778.1125514317528,1849.4471272649323,3880.3984732733516,-3861.963427632323,-9599.371207745577,-7389.928605879445,-5623.855997046582,-17406.267677339067,0.0
1776.7787496799472,1846.2078944391183,3876.766245288524,-3865.333658844475,-9602.622349515605,-7393.525107031636,-5626.571236327043,-17390.154875819484,0.0
1786.6750823205766,1849.613852483908,3879.624391899536,-3864.2975806979834,-9601.860177086,-7392.167487391405,-5622.677011569539,-17360.311061622833,0.0
1781.8043241376436,1850.5784769651245,3881.08919203768,-3862.0229723533857,-9599.371207745577,-7388.999708230866,-5620.235678005966,-17333.015761487666,0.0
1797.166862171834,1853.377078855074,3884.1855175329433,-3858.950464746548,-9596.012885477638,-7385.581841241865,-5616.627267909564,-17318.296306440952,0.0
1798.655480198403,1850.2092996945355,3880.2674748870136,-3863.2495936072787,-9600.061926509905,-7389.404612334094,-5620.057043842778,-17317.617496620835,0.0
1778.0649156549025,1849.1494036596187,3879.2671235731596,-3864.19040020007,-9601.324274596436,-7388.678166737128,-5618.306429043533,-17330.633972645155,0.0
1782.590314455672,1848.946951608005,3878.5287690319815,-3863.9641302600317,-9600.657373720533,-7386.96327877052,-5617.520438725504,-17351.403171351845,0.0
1807.7420046325792,1858.8790110812724,3888.008288625172,-3854.0320707867645,-9591.094491517853,-7379.663095968227,-5611.625511340291,-17377.793391726856,0.0
1817.1381616162819,1863.797405041056,3892.7599573659795,-3848.851680054305,-9584.62793481044,-7372.791635157585,-5605.82585550878,-17382.223518973926,0.0
1787.9850661839573,1859.1767346865863,3888.7704610547753,-3852.8054495328715,-9588.260162795266,-7374.387433682066,-5607.433562977474,-17390.262056317395,0.0
1786.353540826838,1850.3045712482358,3879.7911171185115,-3863.142413109366,-9599.049666251838,-7389.273613947756,-5619.485414520575,-17387.392000762175,0.0
1775.5997642029047,1845.0289089620758,3875.0513573219164,-3867.512995635372,-9602.22935435659,-7393.144020816834,-5623.42727505493,-17359.382163974253,0.0
1784.7696512465686,1839.1697084095008,3869.073067327216,-3873.205470968971,-9608.38627851448,-7400.051208460114,-5629.77474232022,-17334.11138435522,0.0
1805.0863100731806,1839.1816173537134,3868.5252558934385,-3874.027188119637,-9610.267891700061,-7401.111104495031,-5632.29943849328,-17323.833965499787,0.0
1784.5076544738924,1846.8509774265963,3875.1585378198297,-3865.7147450592765,-9602.253172245015,-7392.70338988097,-5623.391548222292,-17310.30540487433,0.0
1792.319921877326,1860.2842664983536,3888.3417390631234,-3852.364818597007,-9587.879076580464,-7377.471850233117,-5608.302915904991,-17306.1015475673,0.0
1785.4365521224715,1854.091615507827,3882.8398068369247,-3857.902477655843,-9592.952286815012,-7381.5685270422355,-5613.8643928522515,-17329.085809897522,0.0
1780.3990687205624,1853.0674463055477,3882.530174287398,-3859.152916798161,-9594.81008211217,-7384.212312657421,-5616.603450021138,-17369.862034881295,0.0
1779.1486295782447,1844.576369081999,3874.158186505975,-3869.0016136619406,-9604.7064147528,-7393.120202928409,-5626.92850465342,-17401.861367980422,0.0
1787.0085327585282,1849.4947630417826,3878.8384015815077,-3864.2499449211327,-9600.014290733054,-7390.321601038459,-5622.641284736902,-17394.596912010762,0.0
1797.2264068928969,1853.722438237238,3882.0776344073215,-3860.5462632710296,-9598.037405993771,-7391.1552271333385,-5622.057746470487,-17382.16397425286,0.0
1801.8113504147288,1857.116487337815,3885.4478656194733,-3855.6635961438838,-9591.154036238917,-7382.461697858176,-5617.329895618104,-17359.572707081654,0.0
1783.352486885275,1855.97322869341,3884.6142395245947,-3856.9735800072644,-9592.737925819185,-7381.913886424399,-5618.568425816209,-17337.052893575717,0.0
1791.5101136708724,1856.58058484825,3885.9123144437626,-3855.2944188732945,-9591.034946796792,-7380.901626166332,-5618.520790039359,-17312.079837562,0.0
1777.7791009938014,1853.2818073013736,3882.20863279366,-3860.6534437689425,-9599.66893135089,-7389.404612334094,-5622.2601985221,-17310.34113170697,0.0
1786.6512644321517,1857.676207715805,3886.2219469932893,-3858.045384986394,-9597.406231950506,-7389.892879046808,-5620.033225954352,-17324.82240786943,0.0
1786.7108091532145,1857.1403052262401,3885.971859164825,-3856.6877653461634,-9594.15509018048,-7386.772735663119,-5619.080510417349,-17354.154137464942,0.0
1789.4260484336762,1855.0086042121936,3883.637706099166,-3858.0096581537564,-9594.464722730007,-7386.86800721682,-5620.450039001792,-17381.092169273732,0.0
1795.1661595441255,1858.1882923169444,3887.0912999208053,-3854.508428555266,-9591.558940342144,-7383.402504450968,-5616.793993128539,-17388.749620402403,0.0
1804.3598644762149,1860.534354326817,3889.6040871496534,-3851.376376227365,-9587.116904150862,-7378.579382044885,-5612.82831470576,-17386.713190942057,0.0
1778.0291888222648,1857.8310239905682,3887.198480418718,-3853.4961682972,-9587.914803413103,-7378.948559315474,-5613.828666019614,-17380.758718835783,0.0
1793.403635800668,1854.1392512846774,3883.2328019959386,-3856.878308453564,-9591.59466717478,-7383.616865446793,-5616.865446793814,-17351.26026402129,0.0
1794.4516228913724,1847.2320636413979,3876.397068017935,-3863.725951375781,-9598.96630364235,-7389.3807944456685,-5622.105382247337,-17328.93099362276,0.0
1795.4043384283764,1850.3283891366611,3879.41003090371,-3861.6299771943713,-9596.548787967202,-7386.570283611506,-5617.9372517729435,-17310.805580531258,0.0
1804.0264140382633,1853.3175341340113,3883.018441000113,-3857.7952971579302,-9593.1309209782,-7383.235779231992,-5614.352659564966,-17304.315205935418,0.0
1785.901000946761,1849.1970394364687,3879.1599430752462,-3861.7133398038595,-9596.63215057669,-7387.261002375834,-5617.710981832905,-17320.0469212402,0.0
1781.8638688587062,1849.1017678827684,3879.017035744696,-3860.8082600437056,-9595.14353255012,-7385.843838014541,-5616.734448407476,-17345.162884584464,0.0
1785.686639950935,1847.6607856330495,3877.6236892718275,-3861.975336576536,-9596.274882250314,-7386.891825105245,-5619.46159663215,-17376.92403879934,0.0
1779.1843564108824,1843.4926551586568,3874.0748238964875,-3867.3343614721834,-9599.764202904591,-7389.952423767871,-5623.332003501229,-17399.396216528425,0.0
1792.450920263664,1850.2450265271732,3880.5413806039023,-3859.819817674064,-9592.880833149737,-7382.842784072978,-5615.829368647322,-17395.740170655172,0.0
1800.7276364913866,1852.9364479192097,3881.4821871966938,-3860.73680637843,-9597.00132784728,-7388.45189679709,-5616.579632132713,-17379.817912242986,0.0
1786.6393554879392,1847.3035173066733,3874.991812600854,-3866.3459191025418,-9601.20518515431,-7391.691129622904,-5623.201005114892,-17354.177955353367,0.0
1784.7458333581437,1846.9938847571468,3874.8012694934528,-3865.9052881666776,-9600.597828999471,-7391.333861296526,-5623.927450711857,-17318.177216998825,0.0
1791.6649299456355,1847.6965124656874,3875.325263038805,-3865.571837728726,-9600.597828999471,-7390.583597811135,-5621.986292805212,-17307.86407131076,0.0
1795.7377888663282,1852.2933649317317,3879.2671235731596,-3862.868507392477,-9598.632853204399,-7388.809165123465,-5619.6759576279765,-17307.22098832328,0.0
1777.6242847190383,1848.125234457339,3875.2180825408923,-3867.298634639546,-9602.931982065129,-7394.096736353838,-5623.486819775992,-17315.80733710053,0.0
1787.627797857581,1850.6380216861874,3878.7074031951693,-3861.76097558071,-9598.668580037038,-7388.142264247563,-5618.532698983571,-17334.945010450097,0.0
1785.686639950935,1848.3991401742278,3877.183058335963,-3862.8923252809022,-9599.347389857152,-7388.332807354964,-5618.032523326644,-17379.15101136709,0.0
1785.639004174085,1849.6853061491834,3879.6720276763863,-3860.748715322643,-9595.584163485986,-7384.033678494233,-5614.447931118666,-17392.69148093676,0.0
1787.9850661839573,1852.2338202106691,3881.0177383724044,-3859.5220940687504,-9595.393620378583,-7384.807759868049,-5613.840574963827,-17385.855746958754,0.0
1778.9223596382062,1852.055186047481,3880.8033773765787,-3859.4030046266244,-9594.583812172132,-7386.117743731429,-5617.913433884519,-17376.852585134064,0.0
1785.579459453022,1853.698620348813,3882.780262115862,-3856.0685002471105,-9590.880130522028,-7383.402504450968,-5616.746357351689,-17351.28408190972,0.0
1791.4624778940222,1852.7220869233838,3882.20863279366,-3857.592845106317,-9591.940026556946,-7383.259597120417,-5616.484360579013,-17320.6185505624,0.0
1780.148980892099,1848.9945873848553,3878.9336731352078,-3861.85624713441,-9595.64370820705,-7386.784644607333,-5620.247586950179,-17306.74463055478,0.0
1779.458262127771,1844.3500991419605,3874.408274334439,-3865.5122930076636,-9599.168755693963,-7391.036137691212,-5624.499080034059,-17303.993664441678,0.0
1790.164402974854,1851.9480055495678,3881.375006698781,-3857.7714792695056,-9591.487486676868,-7381.104078217945,-5614.674201058705,-17317.760403951386,0.0
1792.2841950446882,1857.116487337815,3885.9242233879754,-3854.1630691731025,-9589.844052375536,-7379.496370749251,-5610.589433193801,-17339.125049868704,0.0
1764.714989192633,1841.6705866941365,3870.716501628548,-3869.5851519283556,-9605.623403457166,-7396.359435754223,-5626.249694833305,-17379.841730131415,0.0
1781.2565127038663,1846.195985494906,3875.5396240346313,-3863.7974050410558,-9599.252118303451,-7389.071161896142,-5620.509583722855,-17385.5222965208,0.0
1794.9398896040873,1849.030314217493,3876.944879451712,-3862.3564227913375,-9598.156495435896,-7389.106888728779,-5620.188042229116,-17389.15452450563,0.0
1770.2407393072567,1843.278294162831,3871.597763500277,-3868.465711172376,-9602.967708897768,-7394.072918465413,-5624.975437802562,-17378.805651984923,0.0
1770.1335588093439,1838.7886221946992,3866.881821592107,-3872.395662762518,-9606.278395388856,-7398.050505832405,-5627.619223417747,-17358.04836222245,0.0
1768.692576559625,1835.4422088709725,3862.9161431693274,-3876.6114290137607,-9611.482604009741,-7402.825992461638,-5630.382098475059,-17333.34921192562,0.0
1770.4431913588699,1833.6082314622397,3861.010712095319,-3878.6597674183195,-9613.745303410125,-7404.4456088745455,-5633.311698751347,-17311.627297681924,0.0
1783.9717519843277,1834.6800364413693,3862.1182439070863,-3877.6236892718275,-9612.602044765721,-7403.397621783841,-5632.978248313395,-17305.756188185136,0.0
1791.1171185118583,1834.5014022781809,3861.2846178122077,-3878.14768281718,-9614.305023788116,-7403.731072221792,-5632.525708433318,-17324.66759159467,0.0
1801.6327162515406,1836.9308268975415,3863.9284034273937,-3875.30144515038,-9611.256334069703,-7398.324411549294,-5627.58349658511,-17350.033642767397,0.0
1793.2130926932673,1834.632400664519,3861.2607999237825,-3878.3620438130056,-9614.412204286029,-7402.171000529947,-5632.144622218517,-17374.26834423994,0.0
1772.801162312955,1827.2250373643124,3854.5560643321164,-3885.1739599025846,-9621.402754538796,-7408.62564829315,-5639.921162789313,-17395.668716989894,0.0
1757.6529852745905,1828.38020495293,3855.9851376376228,-3883.2328019959386,-9618.878058365735,-7406.5177651675285,-5637.467920281528,-17413.341590201322,0.0
1761.4162116457564,1831.0239905681162,3858.688467973872,-3881.08919203768,-9616.877355738026,-7405.303052857848,-5635.145676160079,-17403.659618556518,0.0
1776.8144765125846,1832.2863386546464,3859.7602729530013,-3880.1245675564633,-9617.186988287553,-7406.041407399027,-5635.28858349063,-17365.19372874998,0.0
1768.609213950137,1824.426435474363,3852.8292674212967,-3887.365205637694,-9624.463353201421,-7414.770663506827,-5643.4938460530775,-17343.281271398886,0.0
1770.8480954620968,1823.259358941533,3852.102821824331,-3887.758200796708,-9624.022722265558,-7414.151398407774,-5645.351641350236,-17333.59929975408,0.0
1782.661768120947,1825.0695184618407,3854.24643178259,-3884.090245979243,-9619.616412906913,-7409.471183332242,-5642.029045914934,-17319.987376519133,0.0
1782.2925908503582,1820.25830499997,3848.26814178789,-3889.782721312842,-9624.927802025712,-7413.817947969823,-5646.875986209442,-17334.11138435522,0.0
1769.4309311008033,1822.4614596792921,3849.2804020459566,-3891.1165230646475,-9627.595405529322,-7415.5804717132805,-5646.018542226139,-17359.19162086685,0.0
1759.7013236791493,1817.9956055995854,3844.362008086173,-3896.535092681358,-9633.549877635598,-7420.951405553141,-5652.13973955139,-17399.193764476808,0.0
1754.8186565520034,1811.6600472785085,3838.2050839282842,-3901.8583907443685,-9638.051458547943,-7426.78678821729,-5659.594738628447,-17431.907634228686,0.0
1759.784686288637,1815.3280020959742,3841.015594762446,-3899.750507618747,-9636.050755920232,-7425.095718139109,-5657.224858730149,-17426.584336165677,0.0
1767.3111390309691,1811.4575952268951,3836.907009009116,-3904.5021763595546,-9640.457065278877,-7429.109032338738,-5659.963915899036,-17408.4827409626,0.0
1767.3587748078194,1814.9230979927474,3842.027855020513,-3899.1907872407573,-9635.026586717953,-7423.416557005138,-5655.188429269803,-17382.0091579781,0.0
1765.9297015023133,1809.0043527191096,3837.15709683758,-3904.9904430722695,-9641.266873485332,-7430.430925146331,-5660.96426721289,-17356.94083041068,0.0
1776.969292787348,1812.6365807039376,3839.098254744226,-3901.63212080433,-9638.861266754395,-7426.667698775165,-5655.974419587831,-17337.94606439166,0.0
1774.051601455273,1817.2810689468324,3842.897207948029,-3897.01145044986,-9634.907497275828,-7423.083106567187,-5650.6273036363955,-17332.4798589981,0.0
1760.6421302719407,1814.851644327472,3840.9322321529585,-3899.321785627095,-9636.920108847751,-7425.464895409697,-5652.866185148356,-17344.66270892754,0.0
1763.1310996123636,1812.4460375965368,3839.931880839104,-3901.2629435337412,-9638.408726874319,-7427.8466842522075,-5655.426608154054,-17366.837163051307,0.0
1770.181194586194,1808.3017250105693,3836.752192734353,-3903.7638218183765,-9640.468974223091,-7431.419367515972,-5658.356208430341,-17402.27818102786,0.0
1755.1282891015296,1804.7885864678665,3833.14378263795,-3907.1102351421027,-9643.02939722879,-7434.289423071197,-5662.13134374572,-17428.83512662185,0.0
1753.711124740236,1798.786478584741,3826.8320422052984,-3913.5887007937313,-9649.353046605653,-7439.457904859444,-5668.454993122585,-17436.849846076897,0.0
1778.446001869704,1804.9553116868424,3833.2390541916507,-3906.217064326162,-9642.80312728875,-7431.50273012546,-5662.262342132059,-17413.436861755017,0.0
1767.2992300867568,1803.5024204929111,3831.190715787092,-3908.8013052202855,-9645.04200880071,-7434.086971019584,-5664.012956931303,-17387.38009181796,0.0
1795.6186994242025,1814.6849191084964,3842.182671295276,-3898.464341643791,-9634.264414288351,-7425.965071066625,-5654.37862106335,-17339.66095235827,0.0
1771.5983589474874,1813.4582978546036,3840.9441410971713,-3899.6552360650467,-9635.109949327443,-7425.607802740248,-5655.629060205667,-17319.368111420084,0.0
1760.9398538772546,1813.3987531335408,3840.7416890455575,-3900.119684889336,-9635.121858271656,-7424.714631924307,-5653.640266522171,-17325.62030713167,0.0
1764.7626249694833,1813.20821002614,3839.8723361180414,-3900.131593833549,-9635.836394924407,-7423.083106567187,-5652.628006264104,-17340.68512156055,0.0
1764.822169690546,1806.9679232587634,3833.6558672390897,-3905.7526155018727,-9642.124317468635,-7429.406755944052,-5658.272845820853,-17363.681292834983,0.0
1769.5142937102912,1816.0068119160894,3842.6471201195654,-3897.225811445686,-9634.288232176776,-7422.380478858647,-5651.103661404898,-17393.56083386427,0.0
1763.5121858271652,1821.5206530865005,3848.6135011700535,-3891.8906044384635,-9629.000660946404,-7417.235814958824,-5645.161098242835,-17407.744386421422,0.0
1769.0855717186394,1820.3893033863083,3847.255881529823,-3892.4741427048784,-9628.262306405226,-7417.092907628274,-5644.94673724701,-17411.00743713566,0.0
1773.837240459447,1817.7336088269094,3844.9931821294385,-3894.200939615698,-9629.82237809707,-7419.105519200196,-5646.971257763143,-17397.443149677565,0.0
1780.4586134416254,1817.6026104405714,3844.8502747988878,-3893.772217624047,-9629.298384551717,-7418.66488826433,-5647.2689813684565,-17365.43190763423,0.0
1794.6659838871985,1819.1269552997778,3847.124883143485,-3891.4142466699614,-9626.773688378657,-7417.509720675714,-5647.304708201094,-17332.825218380265,0.0
1786.2344513847124,1826.546227544197,3854.055888675189,-3885.3168672331353,-9620.080861731203,-7410.995528191448,-5640.349884780965,-17309.221690950988,0.0
1761.7377531394955,1823.2236321088953,3850.8642916262256,-3888.4727374494614,-9623.37963927808,-7414.2585789056875,-5643.55339077414,-17306.577905335802,0.0
1763.3573695524024,1819.1269552997778,3846.1126228854177,-3893.55785662822,-9627.10713881661,-7418.367164659016,-5647.9477911885715,-17334.825921007974,0.0
1769.9549246461554,1827.177401587462,3852.6506332581084,-3887.9130170714716,-9621.307482985096,-7411.8410632305395,-5639.325715578685,-17356.76219624749,0.0
1775.3496763744408,1824.5097980838507,3850.5903859093373,-3889.30636354434,-9623.236731947529,-7412.9724129307315,-5640.719062051554,-17374.375524737854,0.0
1777.838645714864,1825.5101493977052,3852.9364479192095,-3887.448568247182,-9621.617115534622,-7412.138786835853,-5641.159692987418,-17390.52405309007,0.0
1779.1843564108824,1829.7854603700107,3857.616662994742,-3883.792522373929,-9617.210806175977,-7407.839657975122,-5636.372297413973,-17395.859260097295,0.0
1770.740914964184,1821.8779214128772,3849.7329419260336,-3891.1165230646475,-9623.879814935006,-7414.83020822789,-5642.445858962374,-17388.332807354964,0.0
1772.1818972139024,1820.1153976694195,3847.815601907813,-3892.724230533342,-9625.654247622677,-7416.997636074574,-5645.256369796536,-17364.50300998565,0.0
1772.0032630507142,1819.4365878493043,3846.922431091871,-3892.8909557523175,-9625.24934351945,-7416.9380913535115,-5645.125371410198,-17331.050785692594,0.0
1776.433390297783,1820.8656611548101,3848.744499556392,-3890.4615311329576,-9622.510286350564,-7415.211294442691,-5643.219940336189,-17311.805931845112,0.0
1779.2558100761576,1824.1525297574742,3852.817358477084,-3885.4716835078984,-9617.996796494006,-7410.721622474559,-5639.075627750222,-17306.161092288363,0.0
1786.78226281849,1831.452712559768,3859.260097296074,-3878.9455820794205,-9611.458786121315,-7400.992015052905,-5632.1327132743045,-17315.866881821592,0.0
1788.580513394585,1829.916458756349,3856.2471344102987,-3885.007234683609,-9620.21186011754,-7408.768555623701,-5639.623439183999,-17342.924003072505,0.0
1793.9157204018077,1836.6092854038025,3862.5946016755884,-3878.0405023192666,-9612.578226877296,-7404.100249492381,-5635.157585104293,-17369.45713077807,0.0
1785.9962725004614,1836.2639260216386,3862.392149623975,-3877.611780327615,-9609.434265605181,-7400.372749953853,-5632.799614150207,-17394.62072989919,0.0
1774.1468730089734,1830.5833596322518,3857.616662994742,-3884.0068833697546,-9616.436724802163,-7405.862773235838,-5638.313455320619,-17399.551032803185,0.0
1765.1794380169226,1830.3332718037882,3857.390393054704,-3884.959598906759,-9618.56842581621,-7408.149290524648,-5638.765995200696,-17389.24979605933,0.0
1789.616591541077,1843.278294162831,3870.240143860046,-3871.4072203928763,-9605.016047302326,-7396.990609797488,-5627.154774593459,-17351.81998439928,0.0
1792.4628292078764,1843.3259299396811,3870.871317903311,-3870.037691808433,-9602.824801567216,-7395.954531650997,-5626.118696446966,-17317.712768174537,0.0
1802.1328919084679,1842.3851233468895,3869.5732429841432,-3870.811773182248,-9605.194681465515,-7398.157686330318,-5627.107138816607,-17304.255661214356,0.0
1789.4022305452509,1843.59983565657,3869.6089698167807,-3871.740670830827,-9607.445471921686,-7401.99236636676,-5629.26265771908,-17304.362841712267,0.0
1782.1496835198075,1844.8502747988878,3871.0975878433496,-3869.3707909325294,-9604.122876486384,-7398.776951429371,-5625.892426506928,-17317.522225067136,0.0
1790.962302237095,1847.6369677446246,3873.9319165659367,-3865.571837728726,-9600.061926509905,-7394.370642070728,-5620.8073073281685,-17338.470057937015,0.0
1792.843915422678,1848.577774337416,3874.027188119637,-3864.5714864148717,-9599.395025634001,-7392.643845159907,-5619.544959241638,-17361.680590207277,0.0
1809.9927950887513,1850.2450265271732,3875.8968923610078,-3862.296878070275,-9596.810784739879,-7388.618622016065,-5617.020263068578,-17376.459589975053,0.0
1795.6186994242025,1851.150106287327,3876.813881065374,-3861.963427632323,-9595.798524481812,-7390.619324643774,-5618.0920680477075,-17384.926849310174,0.0
1799.501015237494,1850.5665680209122,3876.492339571635,-3864.0236749810942,-9597.525321392632,-7392.65575410412,-5619.902227568015,-17369.850125937082,0.0
1791.8554730530363,1842.9091168922419,3868.656254279777,-3872.443298539368,-9605.706766066654,-7399.122310811535,-5627.02377620712,-17343.840991776877,0.0
1789.664227317927,1848.87549794273,3874.158186505975,-3865.786198724552,-9599.013939419201,-7394.751728285529,-5622.129200135762,-17315.75970132368,0.0
1796.6309596822691,1852.5077259275579,3878.19531859403,-3861.5704324733088,-9594.57190322792,-7390.404963647948,-5619.068601473136,-17293.525702478848,0.0
1789.295050047338,1848.9112247753676,3875.3728988156554,-3864.833483187548,-9597.918316551646,-7393.203565537897,-5622.950917286428,-17292.644440607117,0.0
1803.9073245961379,1853.7343471814506,3880.362746440714,-3860.057996558315,-9593.893093407803,-7389.583246497282,-5620.092770675416,-17308.114159139222,0.0
1811.3265968405572,1855.7469587533717,3881.69654819252,-3858.6051053643837,-9591.892390780095,-7387.9874479728,-5617.055989901215,-17331.467598740033,0.0
1815.5542720360127,1854.9490594911308,3880.922466818704,-3859.534003012963,-9592.19011438541,-7387.773086976974,-5615.424464544096,-17359.620342858503,0.0
1785.138828517158,1846.457982267582,3872.2884822646047,-3868.048898124937,-9599.94283706778,-7395.085178723481,-5623.2248230033165,-17388.0827195265,0.0
1763.8337273209042,1848.1014165689141,3873.1935620247586,-3866.4530996004546,-9598.323220654871,-7393.763285915887,-5621.283665096671,-17390.750323030108,0.0
1789.6880452063522,1850.7452021841004,3877.0282420611998,-3862.6779642850765,-9594.964898386934,-7391.548222292353,-5617.818162330818,-17373.232266093448,0.0
1797.3931321118725,1847.4226067487987,3873.336469355309,-3867.6201761332845,-9599.311663024515,-7394.156281074901,-5621.081213045058,-17340.149219070983,0.0
1795.2733400420386,1852.8649942539344,3879.862570783787,-3859.974633948827,-9591.725665561118,-7386.284468950405,-5613.352308251112,-17303.517306673177,0.0
1782.483133957759,1851.102470510477,3878.731221083595,-3861.3441625332703,-9593.750186077252,-7385.165028194425,-5613.233218808986,-17310.281586985904,0.0
1789.6285004852894,1849.8877582007965,3876.2898875200217,-3864.511941693809,-9597.47768561578,-7389.726153827833,-5615.924640201023,-17309.912409715318,0.0
1796.559506016994,1856.830672676714,3882.7445352832246,-3856.9973978956896,-9590.975402075728,-7386.236833173554,-5610.3988900864,-17310.448312204884,0.0
1798.4887549794273,1859.105281021311,3885.209686735222,-3854.234522838378,-9587.47417247724,-7382.140156364438,-5607.802740248063,-17329.109627785947,0.0
1793.6775415175568,1852.2100023222442,3879.195669907884,-3860.427173828904,-9592.440202213873,-7389.29743183618,-5614.9600157198065,-17363.883744886596,0.0
1786.3297229384127,1848.87549794273,3874.9441768240035,-3865.8457434456145,-9597.906407607434,-7394.62072989919,-5620.414312169155,-17386.891825105246,0.0
1791.4624778940222,1849.6853061491834,3876.337523296872,-3864.690575856997,-9596.12006597555,-7392.786752490458,-5618.854240477311,-17395.83544220887,0.0
1801.6327162515406,1854.9490594911308,3880.6485611018156,-3859.7483640087885,-9591.892390780095,-7386.403558392531,-5613.888210740677,-17369.957306434997,0.0
1792.0936519372874,1853.5080772414121,3878.7907658046574,-3861.677612971222,-9593.488189304577,-7389.178342394055,-5616.389089025312,-17339.279866143464,0.0
1786.293996105775,1849.4947630417826,3875.6944403093944,-3864.7501205780604,-9595.476982988073,-7392.012671116642,-5618.830422588885,-17306.98280943903,0.0
1800.5370933839858,1850.4712964672117,3876.8853347306494,-3863.3686830494044,-9593.535825081428,-7391.095682412275,-5618.485063206722,-17286.29697334183,0.0
1809.421165766549,1853.0912641939728,3880.1245675564633,-3859.8912713393393,-9589.963141817661,-7386.856098272608,-5615.376828767246,-17286.48751644923,0.0
1797.8933077687996,1852.948356863422,3878.874128414145,-3860.3557201636286,-9591.237398848405,-7388.189900024413,-5615.781732870472,-17304.27947910278,0.0
1807.3609184177776,1854.651335885817,3880.779559488153,-3858.0096581537564,-9588.724611619557,-7384.331402099547,-5611.518330842379,-17324.35795904514,0.0
1793.1297300837794,1856.7354011230134,3882.0657254631087,-3856.4972222387623,-9588.272071739479,-7383.211961343567,-5610.3155274769115,-17353.53487236589,0.0
1778.0410977664774,1848.2205060110396,3874.110550729125,-3864.7977563549102,-9595.893796035512,-7388.868709844529,-5618.675606314122,-17375.6497817686,0.0
1787.1871669217164,1848.87549794273,3874.348729613376,-3863.7854960968434,-9595.32216671331,-7388.952072454016,-5617.68716394448,-17382.259245806563,0.0
1797.6908557171864,1855.0919668216814,3880.6961968786654,-3856.294770187149,-9588.796065284832,-7384.605307816435,-5611.887508112968,-17363.19302612227,0.0
1806.4677476018362,1852.8888121423595,3879.5529382342606,-3858.96237369076,-9591.344579346318,-7384.629125704861,-5611.935143889818,-17346.6157757784,0.0
1802.9546090591339,1854.4846106668413,3880.8748310418537,-3857.307030445216,-9589.034244169083,-7381.866250647548,-5608.136190686015,-17310.888943140744,0.0
1793.4750894659435,1850.435569634574,3875.884983416795,-3861.5585235290964,-9592.225841218045,-7386.498829946231,-5614.447931118666,-17293.001708933494,0.0
1799.000839580567,1853.2103536360983,3879.41003090371,-3859.2481883518612,-9589.939323929237,-7386.21301528513,-5612.530591100445,-17284.165272327784,0.0
1808.2302713452937,1859.4149135708371,3885.8408607784877,-3852.5791795928335,-9583.710946106072,-7379.746458577714,-5604.349146426423,-17303.17194729101,0.0
1807.1346484777391,1860.010360781465,3885.1501420141594,-3852.686360090746,-9584.651752698865,-7380.222816346217,-5606.9572052089725,-17325.072495697892,0.0
1813.4702067988162,1859.9984518372523,3884.876236297271,-3853.12699102661,-9584.508845368313,-7380.32999684413,-5608.35055168184,-17345.960783846705,0.0
1811.1479626773687,1856.4614954061249,3881.7084571367322,-3857.390393054704,-9588.665066898493,-7382.902328794041,-5610.732340524351,-17369.993033267634,0.0
1785.7819115046354,1852.876903198147,3878.909855246783,-3860.5343543268173,-9591.785210282182,-7386.606010444144,-5614.364568509178,-17380.139453736727,0.0
1778.9819043592688,1852.662542202321,3878.3382259245805,-3860.6891706015804,-9591.904299724309,-7386.355922615679,-5614.13829856914,-17368.611595738977,0.0
1790.7122144086316,1848.577774337416,3873.6341929606233,-3865.333658844475,-9596.215337529251,-7391.95312639558,-5618.0920680477075,-17358.20317849721,0.0
1817.7216998826968,1857.2951215010032,3883.137530442238,-3856.9140352862014,-9587.104995206651,-7383.354868674118,-5609.720080266284,-17322.05953281212,0.0
1830.678631185952,1862.97568789039,3889.3778172096154,-3851.25728678524,-9581.019524714036,-7376.197593202374,-5604.19433015166,-17296.895933690997,0.0
1788.8306012230485,1852.1742754896065,3877.957139709779,-3862.2492422934242,-9593.809730798315,-7387.784995921186,-5616.162819085273,-17296.06230759612,0.0
1810.4334260246158,1856.9378531746268,3881.398824587206,-3857.4142109431286,-9589.39151249546,-7382.604605188726,-5610.375072197974,-17308.006978641308,0.0
1828.4873854508428,1860.9035315974063,3885.3645030099856,-3851.757462442167,-9583.591856663947,-7376.292864756075,-5606.5403921615325,-17333.74220708463,0.0
1784.2456577012165,1857.5452093294668,3882.3991759010605,-3855.1396025985314,-9588.188709129992,-7381.913886424399,-5612.423410602533,-17365.90826540273,0.0
1793.2250016374796,1863.5830440452303,3888.377465895761,-3849.01840527328,-9583.37749566812,-7376.852585134065,-5607.552652419599,-17375.29251344222,0.0
1790.2715834727671,1855.36587253857,3880.362746440714,-3858.5812874759586,-9590.368045920888,-7384.462400485884,-5615.531645042009,-17384.664852537495,0.0
1791.045664846583,1852.4719990949202,3879.1480341310344,-3862.5112390661006,-9595.203077271184,-7390.952775081724,-5619.997499121715,-17375.459238661195,0.0
1791.2719347866214,1856.9497621188393,3884.0307012581798,-3856.735401123013,-9589.724962933411,-7385.891473791391,-5614.805199445043,-17347.151678267965,0.0
1803.347604218148,1859.843635562489,3885.162050958372,-3855.032422100619,-9587.29553831405,-7382.795148296127,-5610.5417974169495,-17311.543935072434,0.0
1812.231676600711,1860.3676291078416,3886.436307989115,-3853.03171947291,-9585.235290965278,-7380.198998457791,-5608.743546840855,-17289.61956877713,0.0
1818.8768674713142,1856.5567669598252,3882.172905961022,-3856.783036899864,-9590.284683311402,-7384.5100362627345,-5612.3876837698945,-17287.46404987466,0.0
1805.336397901644,1860.1294502235905,3884.6499663572326,-3854.567973276329,-9587.414627756176,-7381.63998070751,-5608.62445739873,-17300.07562179575,0.0
1799.1913826879677,1860.879713708981,3885.24541356786,-3853.5676219624747,-9586.473821163383,-7380.353814732555,-5607.254928814285,-17325.20349408423,0.0
1812.517491261812,1863.8450408179062,3887.877290238834,-3851.0429257894143,-9584.639843754652,-7378.996195092323,-5604.0871496537475,-17351.23644613287,0.0
1794.1538992860587,1859.2362794076491,3883.4233451033397,-3855.6278693112463,-9588.736520563769,-7381.949613257037,-5607.254928814285,-17380.758718835783,0.0
1785.901000946761,1856.830672676714,3881.9942717978333,-3856.937853174627,-9589.308149885972,-7382.497424690814,-5608.695911064004,-17382.47360680239,0.0
1799.1199290226923,1861.7609755807098,3886.7102137060037,-3851.281104673665,-9584.3063933167,-7377.6028486194555,-5604.432509035911,-17364.03856116136,0.0
1801.013451152488,1858.2121102053698,3882.30390434736,-3855.854139251285,-9589.16524255542,-7384.355219987971,-5610.255982755849,-17348.009122251267,0.0
1805.0267653521175,1858.1406565400944,3882.86362472535,-3855.6278693112463,-9587.20026676035,-7381.663798595935,-5608.11237279759,-17308.507154298233,0.0
1812.231676600711,1862.8923252809022,3888.4489195610363,-3849.1374947154063,-9581.210067821437,-7377.1860355720155,-5605.170863577089,-17274.2213039103,0.0
1815.066005323298,1864.3571254190458,3889.7350855359914,-3847.2082457529727,-9579.697631906443,-7375.268695553795,-5603.717972383159,-17273.24477048487,0.0
1806.5987459881744,1857.1760320588778,3881.3392798661434,-3856.9140352862014,-9589.86787026396,-7381.866250647548,-5609.458083493608,-17310.769853698617,0.0
1799.2271095206056,1860.1294502235905,3883.042258888538,-3854.3178854478656,-9586.842998433975,-7378.412656825909,-5606.5403921615325,-17327.20419671194,0.0
1802.4544334022066,1860.534354326817,3884.07833703503,-3854.0201618425517,-9585.93791867382,-7377.3765786794165,-5605.766310787717,-17353.98741224597,0.0
1807.5276436367533,1862.6184195640135,3886.4124901006903,-3851.995641326418,-9581.745970311003,-7375.363967107496,-5604.444417980124,-17371.410197628928,0.0
1789.6761362621396,1857.0450336725396,3880.4818358828397,-3857.938204488481,-9587.545626142513,-7382.306881583413,-5609.839169708409,-17382.66414990979,0.0
1800.27509661131,1861.594250361734,3884.530876915107,-3854.19879600574,-9583.770490827135,-7377.197944516229,-5604.670687920163,-17360.715965726056,0.0
1807.8134582978546,1863.7021334873555,3887.079390976593,-3850.9833810683513,-9580.769436885572,-7372.589183105972,-5601.71726975545,-17334.86164784061,0.0
1823.842897207948,1866.5840979867928,3891.4380645583865,-3846.362710713882,-9576.398854359568,-7368.766412013743,-5598.192222268534,-17299.25390464508,0.0
1839.3126157400516,1873.9200076217244,3899.405148236583,-3839.217344186351,-9571.027920519708,-7363.371660285457,-5591.523213509507,-17270.672438534963,0.0
1817.2810689468324,1863.8569497621188,3888.4251016726107,-3849.7329419260336,-9581.603062980452,-7373.387082368213,-5601.455272982774,-17280.592589064017,0.0
1807.7658225210046,1856.7711279556509,3881.375006698781,-3856.461495406125,-9587.212175704562,-7378.948559315474,-5607.338291423774,-17302.076324423455,0.0
1812.6246717597253,1859.7483640087887,3884.4951500824695,-3853.1031731381854,-9584.06821443245,-7376.352409477137,-5604.599234254887,-17321.809444983654,0.0
1810.9812374583933,1865.3455677886877,3890.282896969769,-3847.5297872467117,-9577.947017107197,-7370.862386195152,-5599.168755693964,-17343.709993390534,0.0
1808.4684502295447,1866.3578280467545,3891.652425554212,-3845.290905734752,-9575.196050994098,-7367.623153369337,-5596.751240018816,-17359.263074532126,0.0
1805.3483068458565,1862.0586991860234,3886.912665757617,-3849.768668758671,-9580.19780756337,-7371.1124740236155,-5600.716918441596,-17365.967810123795,0.0
1796.8929564549455,1851.9003697727178,3877.0163331169874,-3861.320344644845,-9593.095194145564,-7385.200755027063,-5612.5067732120215,-17358.405630548823,0.0
1803.8835067077127,1861.2369820353576,3887.7462918524957,-3850.769020072525,-9581.352975151989,-7370.874295139364,-5600.562102166832,-17325.20349408423,0.0
1813.7798393483424,1863.904585538969,3890.3305327466196,-3848.863588998517,-9577.363478840784,-7369.385677112796,-5599.037757307626,-17299.301540421933,0.0
1824.8551574660148,1864.4523969727463,3889.830357089692,-3848.542047504778,-9578.780643202077,-7371.707921234242,-5599.609386629828,-17276.674546418086,0.0
1809.492619431824,1863.9760392042442,3888.222649620998,-3849.518580930208,-9582.38905329848,-7375.232968721158,-5601.419546150136,-17270.076991324335,0.0
1803.3595131623606,1862.7136911177138,3886.4005811564775,-3851.578828278979,-9584.35402909355,-7375.447329716984,-5602.396079575565,-17283.712732447704,0.0
1811.7434098879964,1868.5609827260764,3893.3792224650324,-3843.635562489207,-9575.3865941015,-7367.456428150362,-5596.131974919764,-17305.744279240924,0.0
1810.326245526703,1865.6909271708514,3891.1641588414977,-3846.5413448770696,-9578.185195991447,-7370.981475637277,-5599.716567127741,-17329.990889657678,0.0
1828.3325691760795,1865.6909271708514,3890.878344180396,-3848.149052345764,-9581.4601556499,-7374.9590630042685,-5600.847916827934,-17338.481966881227,0.0
1815.7090883107758,1862.3683317355499,3888.0321065135972,-3851.090561566264,-9583.520402998673,-7375.971323262335,-5602.336534854502,-17356.559744195878,0.0
1794.9637074925122,1859.3791867381997,3885.686044503724,-3852.6149064254705,-9584.925658415754,-7379.008104036537,-5604.694505808588,-17361.52577393251,0.0
1821.3658368117374,1863.0233236672402,3888.484646393674,-3848.7683174448166,-9580.47171328026,-7374.649430454742,-5599.47838824349,-17321.821353927866,0.0
1810.4929707456783,1867.108091532145,3892.0811475458645,-3844.6716406356995,-9574.92214527721,-7370.004942211848,-5595.893796035512,-17282.84337952019,0.0
1807.6348241346664,1868.703890056627,3893.6769460703463,-3843.028206334367,-9573.314437808516,-7368.623504683193,-5596.155792808188,-17263.78906878011,0.0
1810.2071560845773,1859.605456678238,3884.114063867668,-3852.341000708582,-9582.639141126943,-7377.3765786794165,-5604.932684692838,-17268.243013915602,0.0
1828.9875611077698,1865.810016612977,3889.96135547603,-3846.684252207621,-9577.339660952357,-7371.576922847904,-5597.072781512555,-17283.724641391917,0.0
1793.5822699638563,1864.9168457970359,3887.603384521945,-3849.3637646554444,-9580.19780756337,-7373.672897029314,-5599.121119917114,-17318.74884632103,0.0
1811.910135106972,1872.6338416467688,3896.082552801281,-3840.2415133886307,-9570.670652193328,-7364.5506457625,-5590.713405303053,-17333.32539403719,0.0
1823.973895594286,1871.776397663465,3896.9757236172227,-3840.1224239465046,-9570.646834304905,-7364.110014826636,-5591.713756616907,-17342.590552634556,0.0
1802.156709796893,1867.8702639617486,3892.80759314283,-3844.921728464163,-9574.910236332997,-7366.706164664972,-5595.131623605909,-17351.10544774653,0.0
1788.6519670598602,1859.9150892277644,3884.4713321940444,-3852.9483568634223,-9582.019876027889,-7373.83962224829,-5601.812541309149,-17348.378299521857,0.0
1801.0849048177633,1860.7368063784304,3885.221595679435,-3851.4954656694913,-9582.174692302653,-7376.650133082451,-5601.752996588087,-17324.322232212504,0.0
1807.587188357816,1866.2625564930543,3889.985173364455,-3845.612447228491,-9576.577488522755,-7371.18392768889,-5597.275233564169,-17289.560024056063,0.0
1811.088417956306,1866.5840979867928,3890.0923538623683,-3846.160258662268,-9575.458047766775,-7369.123680340119,-5595.357893545948,-17269.898357161146,0.0
1816.923800620456,1869.2993372672545,3893.0576809712934,-3842.6471201195654,-9572.790444263164,-7368.313872133666,-5594.131272292055,-17266.23040234368,0.0
1837.0856431723046,1868.0727160133617,3892.3907800953907,-3843.969012927159,-9574.21951756867,-7369.266587670671,-5595.024443107996,-17279.48505725225,0.0
1814.5301028337333,1865.524201951876,3889.568360317016,-3846.7318879844706,-9577.720747167159,-7372.755908324947,-5599.585568741402,-17313.02064415479,0.0
1788.8544191114736,1858.9623736907604,3883.304255661214,-3853.8415276793635,-9584.96138524839,-7379.698822800864,-5608.86263628298,-17349.616829719962,0.0
1810.1476113635144,1867.5725403564345,3892.188328043777,-3845.4099951768776,-9576.208311252165,-7370.159758486611,-5599.43075246664,-17353.975503301754,0.0
1808.0397282378929,1870.9070447359488,3894.3081201136115,-3843.230658385981,-9574.660148504534,-7370.040669044486,-5597.346687229444,-17357.48864184446,0.0
1816.2211729119156,1867.4772688027342,3892.0454207132266,-3845.6243561727033,-9577.625475613459,-7372.994087209198,-5600.097653342543,-17343.13836406833,0.0
1803.0617895570467,1867.2152720300583,3892.009693880589,-3844.6716406356995,-9576.172584419528,-7371.481651294204,-5600.3120143383685,-17310.15058859957,0.0
