EEG 1,EEG 2,EEG 3,EEG 4,EEG 5,EEG 6,EEG 7,EEG 8,Trigger
1507.565156811023,7940.0027390571695,11521.308078432307,5162.348681977599,-6884.489195610363,-781.274376120185,-5231.4086494661815,-21388.773438290827,0.0
1505.3739110759134,7935.084345097385,11517.056585348426,5158.38300355482,-6888.335784591017,-786.2999505778814,-5237.506028903008,-21402.778356684787,0.0
1506.4338071108307,7939.49065445603,11521.772527256595,5163.158490184052,-6883.26257435647,-781.2386492875474,-5234.778880678333,-21407.696750644573,0.0
1505.7788151791403,7940.419552104608,11523.261145283164,5163.432395900942,-6882.345585652104,-779.0354946082255,-5234.302522909831,-21413.94894635616,0.0
1505.5287273506767,7939.705015451855,11522.653789128324,5161.991413651223,-6884.405833000876,-781.143377733847,-5236.267498704902,-21410.95980135881,0.0
1506.85062015827,7940.312371606695,11523.630322553754,5162.741677136613,-6884.89409971359,-782.4652705414402,-5234.445430240382,-21403.04035345746,0.0
1510.0064903745958,7942.027259573303,11525.15466741296,5164.468474047433,-6882.393221428953,-779.4880344883024,-5230.896564865042,-21390.905139304876,0.0
1509.8993098766828,7942.062986405939,11525.047486915046,5164.4089293263705,-6881.893045772027,-778.9997677755879,-5230.658385980791,-21380.639629393656,0.0
1509.3753163313306,7942.062986405939,11525.607207293036,5165.278282253887,-6879.785162646405,-776.0463496108753,-5231.122834805081,-21371.219654521527,0.0
1508.9346853954662,7940.264735829844,11524.583038090757,5164.885287094872,-6880.440154578096,-776.7847041520533,-5231.349104745119,-21374.959063004266,0.0
1508.1129682448002,7938.895207245401,11523.344507892652,5163.09894546299,-6883.357845910171,-782.5843599835656,-5234.100070858218,-21385.820020126117,0.0
1508.0176966910997,7939.562108121304,11523.308781060015,5163.682483729404,-6883.381663798596,-783.2988966363187,-5235.683960438487,-21394.561185178125,0.0
1508.434509738539,7939.323929237054,11523.487415223204,5164.254113051607,-6882.3217677636785,-779.5713970977903,-5230.253481877564,-21399.027039257835,0.0
1507.4460673688973,7937.894855931547,11521.46289470707,5162.658314527125,-6883.500753240722,-781.8102786097498,-5230.717930701853,-21403.77870799864,0.0
1502.730125460727,7935.382068702699,11518.378478156019,5159.645351641349,-6886.513716126497,-786.2761326894564,-5239.125645315914,-21403.77870799864,0.0
1499.8600699055023,7935.691701252224,11518.533294430781,5159.943075246664,-6884.929826546227,-784.2039763964726,-5235.755414103763,-21399.408125472633,0.0
1505.6597257370147,7937.882946987334,11521.224715822818,5162.741677136613,-6882.19076937734,-781.1910135106972,-5233.707075699203,-21387.820722753822,0.0
1506.7077128277192,7936.144241132302,11519.31928474881,5160.074073633003,-6884.167654116623,-781.4768281717984,-5234.897970120458,-21380.460995230467,0.0
1507.6961551973611,7933.786270178217,11516.711225966263,5157.275471743053,-6886.90671128551,-781.2148313991223,-5233.623713089715,-21375.37587605171,0.0
1509.8040383229825,7934.679440994158,11517.056585348426,5157.811374232617,-6885.048915988354,-780.9409256822336,-5231.825462513621,-21375.88796065285,0.0
1502.8373059586404,7928.153339565682,11510.63766441786,5152.118898899018,-6892.08710201797,-791.8852454135679,-5239.637729917054,-21385.772384349264,0.0
1501.4796863184094,7925.962093830572,11509.018048004953,5150.4040109324105,-6894.528435581544,-793.7311317665132,-5240.530900732995,-21397.252606570164,0.0
1506.1241745613042,7929.665775480675,11513.781625689975,5154.774593458417,-6890.145944111325,-786.4309489642195,-5234.600246515145,-21401.84945903621,0.0
1508.67268862279,7928.153339565682,11511.173566907424,5152.690528221221,-6891.694106858956,-786.7763083463835,-5237.029671134505,-21409.066279229017,0.0
1502.6110360186017,7925.057014070418,11506.99352748882,5149.439386451194,-6895.409697453272,-790.3728094985739,-5241.269255274173,-21409.590272774367,0.0
1493.8936888550145,7922.198867459405,11503.90911093777,5145.878612131641,-6898.041574124246,-794.6481204708796,-5244.294127104162,-21408.030201082525,0.0
1493.9532335760773,7917.268564555409,11500.241156120304,5141.365122275084,-6899.292013266564,-793.8502212086388,-5245.544566246479,-21400.479930451766,0.0
1490.4281860891624,7912.0286291018865,11494.393864511942,5134.38648096653,-6908.187994593339,-803.2344692481288,-5252.487480722396,-21396.228437367885,0.0
1492.1192561673445,7912.981344638892,11495.644303654259,5134.231664691766,-6910.653146045337,-806.9143330098069,-5252.892384825623,-21389.130706617205,0.0
1491.309447960891,7912.1834453766505,11495.144127997331,5136.065642100499,-6905.984839914017,-803.3773765786793,-5252.03494084232,-21388.904436677167,0.0
1491.6071715662047,7909.84929231099,11493.298241644388,5135.4225591130225,-6906.377835073032,-804.4134547251713,-5252.03494084232,-21395.93071376257,0.0
1491.4642642356541,7909.3848434867,11491.91680411573,5133.802942700115,-6910.236332997898,-810.7728309346735,-5260.502200177443,-21408.68519301421,0.0
1488.1178509119275,7905.704979725023,11488.117850911927,5129.86108216576,-6913.4636568794995,-811.713637527465,-5265.992223459429,-21419.51042330342,0.0
1484.7118928671377,7901.894117577007,11483.604361055372,5124.692600377513,-6918.846499663572,-816.7630298735866,-5271.029706861338,-21426.28661256036,0.0
1485.7479710136297,7900.04823122406,11481.758474702425,5122.501354642403,-6922.5978170905255,-821.3479733954185,-5266.873485331158,-21423.2855586188,0.0
1485.4264295198907,7901.77502813488,11483.782995218558,5124.037608445823,-6919.0489517151855,-819.4068154887728,-5264.039156608571,-21417.652628006264,0.0
1482.85409756998,7899.690962897685,11481.87756414455,5121.965452152839,-6920.75193073758,-819.8593553688497,-5265.730226686754,-21411.972061616878,0.0
1478.1738824944475,7894.212848559911,11476.054090424614,5116.832697197229,-6927.123215891294,-825.3612875950482,-5272.76841271637,-21406.875033493903,0.0
1473.8509357452915,7888.889550496901,11470.683156584753,5111.2950381383935,-6932.267879791118,-830.4106799411699,-5278.270344942569,-21405.231599192575,0.0
1472.8505844314373,7887.567657689307,11469.37317272137,5109.508696506511,-6933.375411602884,-832.6495614531293,-5278.722884822646,-21405.96995373375,0.0
1471.8025973407327,7885.721771336362,11467.717829475827,5107.734263818841,-6934.304309251464,-833.8880916512346,-5278.258435998357,-21414.41339518045,0.0
1471.8978688944333,7885.209686735221,11467.348652205239,5107.329359715614,-6933.315866881821,-832.4709272899411,-5277.222357851864,-21424.059639992618,0.0
1472.3742266629351,7885.412138786835,11467.289107484175,5107.722354874628,-6933.161050607058,-830.4821336064451,-5274.3642112408525,-21432.395900941403,0.0
1471.6954168428197,7885.400229842623,11467.146200153626,5107.365086548252,-6933.4706831565845,-830.7322214349086,-5274.471391738765,-21438.4694624898,0.0
1470.492613477352,7885.5312282289615,11466.717478161972,5107.698536986204,-6933.351593714459,-830.3630441643196,-5273.733037197587,-21434.896779226037,0.0
1472.112229890259,7884.197426477154,11465.609946350207,5106.924455612388,-6932.37506028903,-829.7318701210544,-5274.661934846165,-21429.31148439035,0.0
1473.1125812041132,7882.9231694464115,11464.907318641664,5106.031284796446,-6932.386969233243,-830.0415026705807,-5275.602741438958,-21422.440023579707,0.0
1474.339202458006,7882.2800864589335,11465.133588581704,5106.186101071209,-6934.006585646149,-832.8043777278925,-5278.437070161544,-21411.24561601991,0.0
1475.4943700466235,7883.542434545466,11467.610648977914,5108.401164694744,-6932.482240786942,-833.3283712732447,-5277.305720461352,-21403.19516973223,0.0
1476.196997755164,7884.114063867667,11467.574922145277,5108.627434634783,-6931.017440648799,-831.7087548603379,-5276.781726916,-21406.184314729577,0.0
1474.315384569581,7884.602330580382,11467.253380651538,5108.19871264313,-6932.220244014266,-833.1378281658439,-5279.639873527012,-21414.496757789937,0.0
1472.9101291524998,7883.530525601253,11466.955657046225,5107.067362942938,-6932.339333456392,-831.7206638045503,-5278.627613268945,-21423.857187941005,0.0
1477.5665263396074,7886.102857551163,11469.301719056097,5109.7111485581245,-6929.302552682192,-827.2190828922062,-5274.090305523963,-21427.918137917484,0.0
1478.0547930523219,7888.496555337887,11470.361615091013,5110.830589314104,-6928.40938186625,-826.3140031320523,-5272.375417557356,-21429.537754330388,0.0
1481.3654795434109,7890.592529519295,11471.659690010181,5111.021132421504,-6928.254565591487,-826.4569104626029,-5271.446519908777,-21426.40570200249,0.0
1482.2586503593523,7891.140340953073,11471.397693237504,5111.164039752055,-6926.718311788069,-824.9802013802466,-5273.530585145973,-21421.237220214243,0.0
1475.8754562614251,7890.104262806581,11470.873699692153,5112.30729839646,-6924.026890396032,-817.7514722432282,-5268.7789164051665,-21408.828100344766,0.0
1481.5441137065993,7890.128080695006,11472.68385921246,5114.3556368010195,-6921.144925896594,-814.2383337005258,-5264.932327424512,-21398.514954656694,0.0
1487.5343126455123,7893.414949297669,11474.696470784382,5116.17770526554,-6921.668919441947,-819.3353618234975,-5263.491345174793,-21388.69007568134,0.0
1487.9392167487392,7895.28465353904,11476.423267695202,5117.02324030463,-6922.978903305327,-822.0863279365968,-5264.205881827547,-21391.810219065028,0.0
1487.4747679244497,7898.559613197493,11480.698578667507,5122.024996873903,-6916.881523868501,-816.4533973240602,-5259.632847249926,-21398.765042485156,0.0
1488.6656623457047,7900.727041044176,11483.485271613246,5125.609589081881,-6912.344216123519,-810.546560994635,-5256.405523368326,-21405.993771622176,0.0
1487.3914053149617,7899.000244133355,11481.889473088762,5123.430252290983,-6914.606915523905,-811.6183659737646,-5258.596769103436,-21414.6515740647,0.0
1486.8674117696096,7898.845427858592,11481.675112092938,5122.977712410906,-6914.344918751228,-811.6898196390399,-5258.834947987686,-21420.510774617276,0.0
1490.2614608701865,7901.322488254804,11482.520647132029,5124.764054042789,-6914.202011420677,-813.2379823866714,-5255.798167213485,-21417.152452349335,0.0
1491.095086965065,7902.644381062397,11483.497180557457,5125.776314300856,-6912.725302338321,-811.9160895790783,-5254.440547573255,-21411.352796517825,0.0
1495.8348467616602,7903.847184427864,11485.354975854616,5128.872639796118,-6907.8664530996,-805.270898708475,-5251.61812779488,-21395.716352766744,0.0
1495.9539362037858,7904.347360084791,11486.53396133166,5129.968262663673,-6904.615311329573,-802.9486545870276,-5252.73756855086,-21387.26100237583,0.0
1494.8821312246562,7903.716186041525,11486.069512507367,5129.11081868037,-6904.412859277961,-802.9010188101773,-5252.118303451807,-21379.31773658606,0.0
1494.334319790879,7905.442982952347,11487.7129468087,5128.825004019269,-6907.413913219524,-804.9017214378858,-5247.247545268874,-21379.9250927409,0.0
1496.8351980755144,7909.885019143628,11491.452355291442,5132.111872621932,-6906.199200909843,-804.4372726135964,-5244.115492940973,-21381.163622939006,0.0
1495.1441279973324,7907.848589683282,11490.475821866014,5131.837966905044,-6905.94911308138,-804.5206352230842,-5245.389749971716,-21391.524404403925,0.0
1493.9175067434396,7907.300778249504,11489.546924217433,5131.349700192329,-6905.94911308138,-803.758462793481,-5246.437737062421,-21401.706551705658,0.0
1495.8110288732353,7911.909539659761,11493.655509970764,5135.470194889872,-6901.042628065809,-799.3640623790498,-5247.1880005478115,-21404.88623981041,0.0
1496.6089281354762,7913.945969120107,11496.728017577601,5138.733245604111,-6896.969769145116,-796.9346377596894,-5245.699382521242,-21399.741575910586,0.0
1496.6446549681136,7915.172590374,11497.240102178741,5138.518884608285,-6897.398491136768,-799.995236422315,-5245.627928855967,-21396.156983702607,0.0
1498.597721818972,7916.446847404743,11498.097546162046,5139.650234308477,-6896.088507273387,-797.9468980177562,-5244.222673438886,-21390.071513209994,0.0
1502.5038555206886,7917.423380830172,11499.740980463377,5141.781935322524,-6893.337541160287,-792.9451414484848,-5238.720741212687,-21379.508279693466,0.0
1505.9693582865411,7915.315497704551,11498.192817715744,5139.733596917965,-6896.838770758779,-795.803288059497,-5238.351563942098,-21371.958009062706,0.0
1505.0642785263872,7919.8766233379565,11502.896850679703,5142.639379305827,-6893.432812713989,-792.861778838997,-5235.564870996362,-21372.732090436522,0.0
1505.278639522213,7922.758587837396,11506.29089978028,5146.4026056769935,-6890.562757158764,-789.4915476268452,-5234.635973347783,-21374.887609338995,0.0
1508.2558755753507,7924.151934310264,11507.231706373072,5147.831678982499,-6888.8121423595185,-787.9195669907884,-5235.2195116141975,-21383.354868674116,0.0
1507.4698852573226,7924.937924628292,11507.719973085785,5149.284570176431,-6885.35854853788,-782.7034494256911,-5228.764863850995,-21390.809867751173,0.0
1507.6842462531483,7926.497996320137,11509.863583044045,5152.571438779095,-6880.047159419081,-778.0232343501586,-5223.4058389553475,-21395.621081213045,0.0
1506.398080278193,7927.200624028676,11509.47058788503,5151.702085851579,-6883.893748399736,-786.5738562947702,-5226.668889669587,-21393.191656593684,0.0
1500.5150618371927,7926.37890687801,11508.25587557535,5147.831678982499,-6889.991127836562,-789.4677297384201,-5228.9911337910335,-21389.059252951927,0.0
1505.9336314539034,7928.046159067767,11509.768311490345,5150.439737765048,-6886.073085190632,-783.8109812374583,-5227.01424905175,-21380.56817572838,0.0
1508.5535991806646,7927.7722533508795,11509.053774837592,5150.6660077050865,-6884.28674355875,-783.0368998636426,-5227.585878373952,-21372.077098504833,0.0
1510.6257554736485,7928.355791617294,11510.423303422034,5151.451998023115,-6882.952941806943,-781.4530102833733,-5226.132987180022,-21363.228752954903,0.0
1511.6499246759277,7930.701853627167,11513.281450033048,5153.750424256137,-6881.261871728761,-782.0841843266386,-5224.346645548138,-21364.062379049785,0.0
1512.6979117666324,7931.3925723914945,11514.377072900601,5154.476869853103,-6881.321416449824,-781.9293680518754,-5223.251022680584,-21370.743296753026,0.0
1511.757105173841,7933.202731911802,11515.627512042918,5155.53676588802,-6879.1897154357775,-779.738122316766,-5221.309864773939,-21376.304773700285,0.0
1511.9952840580918,7934.524624719396,11516.163414532484,5156.584752978724,-6877.462918524959,-777.9636896290959,-5220.42860290221,-21380.90162616633,0.0
1511.4593815685269,7936.9421403945435,11518.890562757158,5159.419081701311,-6874.461864583395,-774.462460030606,-5216.522469200493,-21385.653294907137,0.0
1508.2439666311382,7937.859129098909,11520.760266998528,5160.276525684615,-6874.140323089657,-774.3910063653307,-5215.927021989865,-21383.78359066577,0.0
1506.3028087244925,7938.156852704224,11520.355362895301,5160.955335504731,-6872.5445245651745,-772.8785704503366,-5214.867125954948,-21376.161866369737,0.0
1509.8040383229825,7938.6093925843,11520.39108972794,5160.800519229967,-6872.758885561,-772.5570289565978,-5213.509506314717,-21364.395829487738,0.0
1512.388279217106,7938.907116189614,11520.926992217504,5161.038698114219,-6872.330163569349,-772.366485849197,-5214.676582847547,-21354.023139078607,0.0
1514.6033428406404,7938.799935691701,11520.605450723766,5161.300694886894,-6872.342072513561,-771.9258549133326,-5216.3081082046665,-21347.913850697565,0.0
1517.187583734764,7939.038114575952,11520.700722277465,5160.895790783668,-6871.925259466121,-770.8183231015654,-5214.521766572784,-21352.355886888847,0.0
1518.4022960444443,7941.014999315236,11523.451688390565,5162.813130801889,-6869.924556838413,-769.3297050749966,-5212.747333885114,-21356.79792308013,0.0
1518.6285659844825,7941.669991246925,11524.487766537057,5164.26602199582,-6870.234189387939,-769.9727880624743,-5212.568699721926,-21366.825254107094,0.0
1516.413502360948,7942.0034416848775,11523.773229884304,5164.96864970436,-6868.864660803497,-767.781542327365,-5210.615632871068,-21376.030867983398,0.0
1511.6261067875027,7941.991532740665,11523.820865661155,5165.52837008235,-6868.638390863458,-767.5433634431139,-5210.008276716228,-21384.438582597457,0.0
1508.6607796785775,7940.181373220356,11521.260442655455,5163.789664227317,-6870.079373113176,-770.3419653330634,-5214.355041353809,-21383.069054013016,0.0
1513.233814256197,7941.515174972164,11522.058341917696,5165.111557034911,-6867.602312716966,-769.341614019209,-5217.891997784936,-21375.911778541275,0.0
1515.913326704021,7940.693457821497,11522.415610244074,5163.718210562042,-6869.043294966685,-771.2946808700674,-5218.773259656665,-21363.76465544447,0.0
1514.8415217248914,7938.299760034774,11519.843278294162,5161.169696500556,-6872.270618848286,-774.3433705884804,-5215.71266099404,-21356.952739354892,0.0
1517.6401236148408,7941.229360311061,11522.129795582972,5163.468122733579,-6870.198462555302,-773.9861022621039,-5213.461870537867,-21347.568491315404,0.0
1516.1276876998468,7941.884352242752,11522.21315819246,5162.813130801889,-6870.93681709648,-772.5451200123853,-5211.949434622874,-21348.67602312717,0.0
1514.6628875617032,7942.6822515049935,11522.665698072537,5163.289488570391,-6869.6387421773115,-768.6270773664561,-5209.770097831977,-21357.07182879702,0.0
1515.1035184975676,7941.5509018048,11522.951512733638,5163.789664227317,-6867.769037935942,-767.1384593398872,-5208.829291239185,-21366.860980939735,0.0
1513.2814500330473,7939.466836567604,11521.796345145021,5161.681781101696,-6870.7700918775045,-771.7234028617193,-5209.82964255304,-21376.018959039186,0.0
1512.5192776034442,7940.860183040472,11522.308429746161,5163.19421701669,-6869.543470623612,-768.9128920275573,-5207.828939925331,-21382.11633847601,0.0
1516.0800519229967,7944.790134630614,11526.952917989054,5168.291245139662,-6864.898982380717,-764.7685794415896,-5204.470617657392,-21377.76957383843,0.0
1516.2229592535473,7943.908872758885,11525.2856657993,5167.01698810892,-6866.554325626262,-766.8407357345734,-5204.64925182058,-21372.05328061641,0.0
1517.580578893778,7941.681900191138,11522.606153351475,5164.92101392751,-6867.99530787598,-768.2221732632294,-5205.744874688135,-21362.073585366288,0.0
1520.0576392899889,7945.302219231754,11527.167278984882,5169.458321672491,-6861.385843838015,-763.6253207971847,-5204.815977039556,-21349.70019232945,0.0
1524.8569438076465,7947.612554408989,11529.07271005889,5172.042562566616,-6856.657992985632,-760.0050017565693,-5204.708796541642,-21342.542916857707,0.0
1528.7868953977886,7947.957913791152,11529.953971930618,5170.744487647447,-6858.658695613341,-757.6946665793345,-5201.993557261181,-21339.982493852007,0.0
1523.7851388285171,7944.432866304238,11527.453093645983,5167.409983267934,-6865.577792200832,-764.042133844624,-5202.172191424369,-21348.16393852603,0.0
1516.6397723009866,7943.944599591524,11526.810010658506,5166.278633567741,-6868.638390863458,-769.1987066886585,-5205.566240524946,-21360.44206000917,0.0
1519.2359221393226,7946.755110425685,11528.786895397789,5168.8986012945015,-6865.4110669818565,-765.3044819311543,-5205.828237297623,-21366.96816143765,0.0
1522.570426518837,7945.861939609745,11526.988644821693,5169.02959968084,-6866.5066898494115,-765.5426608154054,-5206.256959289274,-21373.70862386195,0.0
1526.22647239209,7947.600645464776,11528.56062545775,5171.066029141186,-6862.862552920371,-763.2442345823831,-5202.136464591732,-21369.540493387558,0.0
1518.8905627571587,7948.69626833233,11530.418420754908,5173.019095992046,-6859.17078021448,-761.5412555599884,-5200.814571784138,-21363.133481401208,0.0
1519.5098278562114,7945.218856622267,11527.274459482795,5168.243609362811,-6865.458702758707,-769.4607034613346,-5209.520010003514,-21355.2497603325,0.0
1522.9515127336385,7946.528840485646,11529.12034583574,5169.1248712345405,-6864.91089132493,-768.4365342590552,-5210.615632871068,-21341.31629560381,0.0
1524.344859206507,7947.576827576351,11528.536807569324,5168.946237071352,-6863.910540011075,-767.6267260526018,-5209.82964255304,-21333.849387582544,0.0
1523.7732298843046,7946.778928314109,11527.86990669342,5169.065326513478,-6862.469557761357,-765.5188429269803,-5209.877278329889,-21339.458500306657,0.0
1525.083213747685,7948.160365842767,11529.108436891527,5169.529775337767,-6862.100380490768,-764.3398574499378,-5207.650305762142,-21344.936614644426,0.0
1523.0586932315514,7949.434622873509,11530.33505814542,5170.065677827332,-6863.196003358322,-765.3759355964296,-5206.4594113408875,-21350.819633085426,0.0
1523.3087810600152,7947.957913791152,11528.19144818716,5169.648864779892,-6863.51754485206,-764.3160395615126,-5206.411775564036,-21363.359751341246,0.0
1523.6422314979666,7947.767370683752,11527.083916375394,5168.946237071352,-6863.9343578995,-763.4943224108467,-5205.649603134433,-21369.873943825507,0.0
1524.690218588671,7949.232170821895,11529.001256393614,5170.768305535873,-6861.897928439154,-761.7437076116016,-5204.2681656057775,-21366.598984167056,0.0
1523.0229663989137,7949.52989442721,11529.239435277865,5170.923121810635,-6860.814214515812,-761.7198897231765,-5204.13716721944,-21360.48969578602,0.0
1524.8926706402842,7949.684710701973,11528.203357131373,5168.386516693362,-6862.7315545340325,-762.5416068738425,-5203.255905347712,-21350.36709320535,0.0
1527.631727809171,7951.12569295169,11530.06115242853,5170.70876081481,-6860.564126687348,-757.9090275751603,-5199.814220470284,-21335.611911326003,0.0
1527.5960009765333,7952.00695482342,11531.311591570848,5172.6737366098805,-6856.860445037245,-752.4547311258119,-5198.349420332141,-21325.501217689543,0.0
1526.4646512763409,7950.863696179014,11530.680417527583,5171.1255738622485,-6857.432074359447,-752.4547311258119,-5199.671313139733,-21331.93204756432,0.0
1528.0723587450352,7949.077354547132,11529.298979998928,5169.5774111146175,-6861.123847065338,-759.8740033702312,-5202.851001244484,-21340.45885162051,0.0
1527.9532693029098,7949.1368992681955,11529.50143205054,5169.529775337767,-6863.719996903674,-766.4477405755592,-5203.208269570861,-21345.97269279092,0.0
1527.9532693029098,7949.851435920948,11530.75187119286,5171.590022686539,-6861.111938121126,-764.7804883858021,-5204.518253434241,-21354.98776355982,0.0
1529.0608011146771,7951.971227990783,11534.12210240501,5175.1269791176655,-6856.026818942367,-759.5643708207049,-5197.730155233088,-21361.585318653575,0.0
1528.7630775093633,7951.411507612793,11533.907741409184,5174.7101660702265,-6857.932250016374,-759.9454570355065,-5198.20651300159,-21359.798977021692,0.0
1531.1210484634485,7953.495572849989,11535.70599198528,5175.496156388255,-6858.146611012201,-760.8505367956603,-5200.052399354535,-21354.79722045242,0.0
1531.8832208930517,7952.769127253023,11535.32490577048,5175.484247444043,-6856.098272607642,-758.4092032320874,-5196.598805532895,-21346.139418009894,0.0
1533.3480210311955,7952.376132094008,11534.062557683948,5174.317170911213,-6857.574981689998,-759.4571903227919,-5197.206161687735,-21335.778636544976,0.0
1535.432086268392,7954.43637944278,11536.241894474846,5177.008592303249,-6854.978831851661,-755.3009687926117,-5194.9077354547135,-21324.96531519998,0.0
1535.134362663078,7954.507833108056,11536.384801805394,5177.1634085780115,-6854.371475696822,-755.8845070590266,-5195.145914338964,-21326.525386891823,0.0
1532.6096664900174,7953.352665519438,11534.622278061937,5174.055174138536,-6859.623320094557,-760.8743546840855,-5197.03943646876,-21334.563924235295,0.0
1525.9049308983513,7952.5309483687715,11533.288476310134,5173.1262764899575,-6859.980588420934,-760.7671741861725,-5196.765530751871,-21346.294234284658,0.0
1522.3084297461608,7949.899071697799,11531.633133064588,5171.756747905514,-6859.492321708219,-759.826367593381,-5197.5515210698995,-21356.85746780119,0.0
1524.213860820169,7949.732346478822,11530.608963862309,5171.744838961302,-6858.289518342751,-759.0403772753526,-5197.563430014112,-21363.466931839157,0.0
1525.190394245598,7950.196795303113,11530.23978659172,5171.137482806462,-6858.9564192186535,-760.7671741861725,-5198.361329276353,-21359.751341244842,0.0
1525.5119357393369,7950.387338410513,11530.01351665168,5170.673033982172,-6859.813863201958,-760.4218148040085,-5198.349420332141,-21352.665519438375,0.0
1527.2149147617317,7952.519039424559,11531.871311948838,5171.947291012915,-6857.884614239524,-757.1944909224072,-5197.063254357185,-21340.268308513107,0.0
1532.8954811511185,7952.3046784287335,11533.550473082809,5174.078992026962,-6855.050285516937,-753.1692677785651,-5193.966928861922,-21331.324691409485,0.0
1534.610369117726,7950.030070084137,11532.359578661553,5172.507011390905,-6857.098623921496,-754.6221589724962,-5193.621569479757,-21323.822056555575,0.0
1529.036983226252,7951.340053947518,11532.419123382617,5171.304208025437,-6859.444685931368,-758.1710243478365,-5194.526649239911,-21326.977926771902,0.0
1521.1770800459685,7949.994343251498,11530.227877647507,5170.077586771545,-6859.813863201958,-757.9090275751603,-5195.265003781089,-21335.719091823914,0.0
1524.0471356011933,7949.899071697799,11529.775337767429,5170.70876081481,-6858.408607784877,-758.0519349057109,-5196.908438082422,-21343.16218195676,0.0
1527.2149147617317,7950.387338410513,11530.43032969912,5172.364104060354,-6856.384087268742,-758.8021983911017,-5200.231033517723,-21351.546078682393,0.0
1528.0247229681852,7949.672801757761,11528.084267689248,5169.458321672491,-6859.837681090383,-764.2207680078122,-5204.220529828928,-21361.95449592416,0.0
1527.607909920746,7948.886811439732,11526.524195997405,5166.874080778369,-6863.446091186786,-765.9118380859944,-5203.041544351885,-21362.716668353765,0.0
1528.4891717924747,7948.434271559654,11526.583740718466,5165.075830202273,-6865.351522260794,-764.6971257763144,-5201.541017381104,-21354.177955353367,0.0
1533.4790194175334,7949.2083529334695,11527.465002590194,5166.588266117267,-6862.850643976159,-762.0176133284904,-5199.040139096468,-21341.6854728744,0.0
1535.0152732209526,7949.613257036697,11526.88146432378,5165.909456297151,-6863.1840944141095,-762.3391548222293,-5200.35012295985,-21333.253940371917,0.0
1531.8832208930517,7950.2682489683875,11528.14381241031,5166.4453587867165,-6863.100731804621,-763.8515907372232,-5199.290226924932,-21325.358310358995,0.0
1530.2159687032945,7949.220261877683,11528.274810796649,5167.362347491083,-6862.314741486593,-762.1247938264032,-5196.420171369707,-21328.04973175103,0.0
1531.430681012975,7948.791539886032,11529.703884102155,5168.93432812714,-6860.766578738962,-759.6000976533425,-5195.729452605379,-21335.814363377613,0.0
1530.4303296991204,7949.089263491344,11531.359227347699,5169.720318445168,-6860.24258519361,-761.6603450021138,-5197.468158460411,-21342.93591201672,0.0
1527.7865440839341,7949.065445602919,11531.50213467825,5171.530477965476,-6858.491970394364,-761.6484360579012,-5201.672015767442,-21353.141877206876,0.0
1528.1438124103108,7951.875956437081,11533.84819668812,5173.674087923735,-6855.5980969507145,-757.1111283129194,-5198.444691885841,-21357.024193020166,0.0
1530.0373345401063,7953.185940300462,11534.63418700615,5173.971811529049,-6854.121387868358,-754.6936126377715,-5195.288821669515,-21353.153786151088,0.0
1528.346264461924,7952.5309483687715,11534.003012962885,5173.388273262634,-6854.740652967411,-754.4792516419457,-5194.633829737824,-21350.46236475905,0.0
1528.9774385051894,7952.030772711844,11533.300385254346,5174.150445692238,-6853.38303332718,-753.3598108859659,-5193.609660535545,-21342.328555861877,0.0
1532.883572206906,7952.3046784287335,11533.324203142769,5173.614543202672,-6854.990740795874,-756.5871347675672,-5193.180938543893,-21332.813309436053,0.0
1534.0863755723735,7951.256691338029,11531.764131450926,5171.113664918036,-6858.110884179563,-757.1349462013445,-5193.669205256608,-21326.27529906336,0.0
1534.6937317272136,7952.781036197235,11533.84819668812,5173.400182206847,-6855.0145586843,-754.5626142514335,-5192.728398663816,-21326.203845398086,0.0
1534.5150975640254,7952.542857312985,11533.729107245996,5172.006835733978,-6856.467449878231,-756.1584127759154,-5194.371832965148,-21333.13485092979,0.0
1531.0734126865982,7949.803800144098,11530.66850858337,5168.910510238715,-6860.397401468373,-762.2915190453791,-5196.634532365533,-21343.709993390534,0.0
1529.3347068315657,7949.982434307286,11530.632781750734,5169.470230616705,-6858.884965553379,-759.3261919364538,-5193.180938543893,-21348.521206852405,0.0
1529.5133409947541,7950.780333569527,11531.883220893053,5171.399479579138,-6856.18163521713,-755.610601342138,-5191.299325358311,-21353.1656950953,0.0
1531.5616793993127,7951.078057174842,11531.585497287737,5171.411388523351,-6856.288815715043,-757.123037257132,-5194.65764762625,-21351.593714459243,0.0
1528.9655295609766,7949.76807331146,11530.346967089632,5170.125222548395,-6857.039079200433,-759.1832846059033,-5198.15887722474,-21345.69878707403,0.0
1532.216671331003,7948.708177276543,11529.513340994754,5169.863225775719,-6856.074454719216,-757.0396746476441,-5198.170786168952,-21336.12399592714,0.0
1531.9189477256893,7948.862993551306,11530.215968703294,5170.280038823158,-6855.407553843314,-755.8845070590266,-5194.979189119988,-21327.44237559619,0.0
1534.896183778827,7951.911683269719,11532.026128223602,5170.19667621367,-6857.312984917322,-758.9093788890145,-5193.061849101768,-21320.15410173811,0.0
1537.0397937370863,7952.05459060027,11531.406863124548,5168.457970358638,-6861.326299116951,-763.113236196045,-5195.562727386404,-21323.833965499787,0.0
1534.7056406714262,7951.244782393816,11530.787598025496,5169.410685895642,-6859.26605176818,-760.7671741861725,-5194.65764762625,-21332.265498002274,0.0
1530.0016077074686,7950.292066856813,11529.54906782739,5168.148337809112,-6860.0520420862085,-760.4813595250713,-5194.693374458887,-21345.234338249742,0.0
1527.0958253196063,7950.423065243151,11529.870609321131,5168.815238685013,-6858.611059836489,-757.968572296223,-5193.44293531657,-21350.64099892224,0.0
1528.584443346175,7950.6850620158275,11530.049243484318,5169.625046891468,-6858.4681525059395,-756.9920388707939,-5191.275507469885,-21351.98670961826,0.0
1533.2646584217077,7951.316236059092,11530.66850858337,5169.815589998869,-6858.396698840665,-757.7780291888222,-5192.180587230039,-21350.057460655826,0.0
1536.6348896338595,7952.66194675511,11532.85975431848,5171.744838961302,-6854.03802525887,-754.812702079897,-5192.597400277478,-21343.852900721085,0.0
1539.695488296485,7953.698024901602,11533.621926748083,5173.221548043658,-6853.656939044069,-753.967167040806,-5187.8100047040325,-21330.836424696765,0.0
1533.1336600353695,7954.186291614316,11534.038739795524,5173.840813142711,-6853.704574820918,-752.6929100100631,-5185.761666299474,-21320.416098510785,0.0
1527.0005537659058,7952.75721830881,11532.76448276478,5171.9949267897655,-6855.872002667603,-754.1815280366319,-5187.500372154506,-21315.152345168837,0.0
1530.8709606349848,7953.293120798375,11534.21737395871,5172.507011390905,-6857.050988144646,-755.0389720199355,-5188.202999863047,-21319.475291917995,0.0
1531.1329574076608,7955.877361692499,11537.6233320035,5174.805437623927,-6853.263943885055,-752.4309132373869,-5186.773926557541,-21322.631162134323,0.0
1528.429627071412,7956.508535735764,11537.813875110902,5175.781971049356,-6852.120685240649,-752.1570075204983,-5188.083910420922,-21330.19334170929,0.0
1529.036983226252,7956.77053250844,11537.289881565548,5175.5437921651055,-6851.834870579549,-751.4901066445955,-5189.8107073317415,-21337.398252957883,0.0
1528.5487165135376,7954.888919322858,11536.027533479019,5174.567258739676,-6852.21595679435,-750.4302106096784,-5188.060092532496,-21346.86586360686,0.0
1529.1322547799525,7954.412561554354,11535.443995212605,5174.2099904133,-6852.751859283915,-751.3114724814071,-5184.546953989794,-21347.663762869102,0.0
1528.7035327883007,7955.270005537659,11535.277269993629,5173.114367545745,-6855.312282289613,-754.5387963630085,-5187.369373768168,-21342.161830642905,0.0
1528.2867197408614,7954.650740438607,11534.157829237649,5172.411739837205,-6854.835924521111,-753.276448276478,-5187.941003090371,-21333.19439565085,0.0
1529.5490678273918,7955.055644541832,11534.265009735562,5172.661827665668,-6853.907026872532,-753.2526303880529,-5189.632073168554,-21325.787032350647,0.0
1535.372541547329,7959.61677017524,11539.493036244872,5177.556403737026,-6848.01209948732,-748.3818722051196,-5184.701770264557,-21316.28369486903,0.0
1542.6012706843474,7965.773694333128,11544.959241638431,5183.022609130588,-6843.343793356,-742.7370326483705,-5177.008592303249,-21308.792968959337,0.0
1542.2201844695458,7963.641993319082,11542.363091800096,5180.438368236464,-6846.321029409138,-744.3685580054901,-5177.651675290727,-21314.509262181364,0.0
1534.5031886198128,7956.67526095474,11535.277269993629,5174.757801847077,-6851.775325858486,-750.1920317254275,-5182.558160306298,-21332.61085738444,0.0
1523.4874152232032,7948.219910563828,11527.417366813344,5166.683537670968,-6859.599502206132,-758.7188357816137,-5190.894421255083,-21351.962891729836,0.0
1517.5091252285029,7943.301516604046,11522.558517574624,5161.657963213272,-6864.112992062688,-763.5776850203345,-5197.027527524548,-21363.645566002346,0.0
1520.1767287321143,7945.51658022758,11525.380937352998,5164.373202493733,-6860.861850292662,-760.2193627523952,-5193.693023145033,-21356.893194633827,0.0
1524.8450348634342,7951.625868608618,11531.78794933935,5170.113313604183,-6853.859391095682,-752.8000905079759,-5189.143806455838,-21346.984953048985,0.0
1529.3704336642033,7954.710285159668,11535.634538320004,5173.138185434171,-6850.060437891879,-749.5965845147998,-5186.095116737425,-21334.659195788994,0.0
1529.7991556558552,7952.602402034048,11534.038739795524,5171.435206411775,-6853.978480537808,-756.1703217201278,-5191.311234302522,-21329.454987168112,0.0
1528.4891717924747,7949.637074925123,11530.644690694946,5168.076884143836,-6857.789342685824,-759.0403772753526,-5195.574636330616,-21326.263390119148,0.0
1528.798804342001,7951.875956437081,11531.597406231951,5168.946237071352,-6857.694071132124,-757.3254893087453,-5196.4558982023445,-21325.57267135482,0.0
1531.0138679655356,7956.032177967262,11533.562382027021,5171.173209639099,-6854.395293585248,-754.5030695303707,-5195.574636330616,-21330.764971031494,0.0
1531.5378615108878,7955.960724301986,11533.586199915446,5171.470933244414,-6852.739950339703,-752.0736449110103,-5190.9420570319335,-21342.161830642905,0.0
1527.0600984869686,7952.268951596096,11531.704586729862,5169.9942241620565,-6856.062545775004,-753.9076223197433,-5187.679006317694,-21350.676725754878,0.0
1526.4646512763409,7952.3046784287335,11533.61001780387,5170.601580316897,-6856.407905157168,-755.848780226389,-5187.035923330217,-21350.45045581484,0.0
1525.1784853013855,7954.805556713369,11535.360632603115,5172.292650395079,-6855.169374959062,-756.6466794886298,-5186.95256072073,-21345.734513906667,0.0
1524.9045795844968,7957.901882208633,11537.4327888961,5175.615245830381,-6852.096867352225,-754.1577101482068,-5188.846082850525,-21343.82908283266,0.0
1527.9413603586975,7958.580692028749,11538.528411763655,5176.377418259985,-6848.9529060801115,-752.9787246711643,-5189.822616275954,-21335.43327716281,0.0
1532.0023103351773,7957.127800834816,11536.301439195908,5174.2099904133,-6850.822610321482,-752.561911623725,-5189.227169065326,-21327.63291870359,0.0
1536.5038912475213,7956.508535735764,11534.622278061937,5172.411739837205,-6853.275852829267,-754.7769752472594,-5189.000899125288,-21317.629405565047,0.0
1541.5890104262805,7956.841986173715,11536.003715590594,5173.924175752199,-6851.834870579549,-753.8480775986806,-5187.964820978796,-21319.296657754807,0.0
1531.3949541803372,7954.555468884905,11535.00336427674,5174.281444078575,-6850.036620003453,-751.3352903698323,-5188.155364086197,-21326.751656831864,0.0
1527.262550538582,7955.008008764983,11535.539266766304,5175.305613280855,-6847.190382336654,-748.1436933208687,-5187.84573153667,-21337.302981404184,0.0
1528.667805955663,7956.556171512615,11536.539618080158,5175.5795189977425,-6846.642570902876,-744.8091889413544,-5185.714030522624,-21342.10228592184,0.0
1527.6912725302336,7955.913088525137,11535.217725272567,5171.637658463389,-6853.942753705171,-752.9429978385266,-5188.548359245211,-21347.270767710088,0.0
1527.476911534408,7954.996099820771,11534.503188619812,5170.172858325245,-6856.812809260395,-756.539498990717,-5189.429621116939,-21346.758683108947,0.0
1530.0373345401063,7954.769829880733,11534.455552842963,5169.7679542220185,-6856.407905157168,-758.8379252237393,-5189.798798387528,-21342.078468033415,0.0
1531.478316789825,7957.092074002178,11536.360983916971,5172.840461828856,-6852.370773069113,-755.241424071549,-5188.107728309346,-21332.456041109675,0.0
1532.4786681036792,7956.591898345251,11536.694434354922,5174.352897743851,-6851.167969703645,-752.3594595721115,-5187.417009545019,-21322.52398163641,0.0
1533.1336600353695,7957.6637033243815,11537.587605170864,5175.019798619753,-6851.084607094158,-751.5615603098707,-5185.678303689986,-21312.282289613613,0.0
1530.466056531758,7958.425875753985,11538.111598716216,5174.293353022788,-6852.001595798524,-752.0498270225853,-5184.6422255434945,-21316.74814369332,0.0
1529.7991556558552,7957.770883822294,11537.861510887753,5174.9007091776275,-6850.894063986758,-752.5738205679376,-5187.559916875569,-21323.405243508136,0.0
1529.2632531662905,7959.092776629888,11539.576398854359,5177.425405350688,-6845.392131760559,-746.6074395174496,-5184.80895076247,-21334.49247057002,0.0
1527.607909920746,7960.367033660631,11539.993211901798,5178.163759891867,-6844.332235725642,-743.0823920305345,-5182.796339190549,-21341.018571998502,0.0
1525.3094836877237,7958.556874140323,11538.433140209954,5174.424351409125,-6850.584431437231,-749.7990365664132,-5186.476202952227,-21346.734865220522,0.0
1526.0597471731144,7958.056698483396,11539.159585806921,5173.495453760546,-6851.429966476322,-751.2995635371947,-5184.630316599281,-21347.056406714262,0.0
1527.762726195509,7958.54496519611,11539.95748506916,5174.8649823449905,-6849.857985840265,-750.2158496138525,-5183.141698572713,-21338.946415705515,0.0
1530.096879261169,7958.997505076187,11539.921758236524,5175.00788967554,-6850.239072055067,-753.4431734954537,-5182.784430246336,-21328.46654479847,0.0
1532.0737640004525,7957.925700097057,11539.064314253219,5174.6029855723145,-6850.203345222429,-752.4190042931743,-5184.844677595108,-21319.522927694845,0.0
1532.5143949363169,7958.437784698198,11539.076223197431,5174.853073400778,-6848.905270303261,-749.7990365664132,-5183.439422178027,-21316.724325804895,0.0
1532.6453933226549,7957.98524481812,11538.611774373143,5174.4124424649135,-6849.226811797,-751.4424708677452,-5186.083207793214,-21321.583175043615,0.0
1534.0030129628856,7959.533407565751,11539.993211901798,5175.079343340816,-6848.869543470623,-750.1682138370023,-5184.820859706682,-21325.132040418957,0.0
1533.6338356922965,7960.545667823818,11540.74347538719,5176.401236148408,-6846.416300962838,-746.5359858521743,-5180.628911343864,-21331.658141847434,0.0
1529.3704336642033,7960.033583222678,11539.266766304832,5176.567961367385,-6845.570765923747,-744.0946522886013,-5179.985828356387,-21341.518747655427,0.0
1527.39354892492,7959.450044956264,11538.55222965208,5174.76971079129,-6848.214551538934,-746.6312574058747,-5181.510173215594,-21350.355184261138,0.0
1526.2860171131529,7959.426227067839,11537.873419831965,5173.388273262634,-6851.09651603837,-751.8711928593971,-5182.462888752597,-21345.28197402659,0.0
1524.8093080307965,7958.259150535008,11537.19461001185,5173.876539975348,-6850.227163110854,-751.6687408077836,-5181.486355327169,-21337.42207084631,0.0
1527.1077342638189,7957.127800834816,11536.384801805394,5173.114367545745,-6850.774974544631,-751.4186529793202,-5182.47479769681,-21330.753062087282,0.0
1530.466056531758,7957.354070774854,11536.527709135946,5173.924175752199,-6848.821907693773,-750.4302106096784,-5183.498966899089,-21322.750251576446,0.0
1533.2646584217077,7957.901882208633,11537.742421445626,5176.54414347896,-6845.261133374221,-747.655426608154,-5183.427513233814,-21313.997177580222,0.0
1531.8236761719888,7957.949517985483,11537.099338458149,5174.876891289202,-6847.666740105155,-750.5612089960164,-5183.177425405351,-21316.93868680072,0.0
1531.8117672277765,7959.628679119453,11537.968691385664,5176.49650770211,-6846.475845683901,-750.2753943349152,-5181.486355327169,-21322.988430460697,0.0
1533.5861999154463,7961.665108579799,11540.576750168215,5180.069190965874,-6841.533633835692,-744.130379121239,-5179.795285248986,-21333.13485092979,0.0
1529.596703604242,7959.985947445829,11538.576047540504,5175.853424714632,-6847.476196997754,-747.2624314491399,-5180.224007240638,-21343.82908283266,0.0
1532.66921121108,7959.104685574101,11538.373595488893,5175.770062105144,-6847.833465324132,-749.3584056305488,-5180.819454451265,-21347.93766858599,0.0
1538.4926849310173,7960.105036887955,11539.493036244872,5177.032410191675,-6847.297562834567,-749.4179503516116,-5181.3553569408305,-21346.21087167517,0.0
1526.4051065552783,7958.54496519611,11538.909497978457,5175.877242603057,-6848.798089805347,-750.465937442316,-5182.2604367009835,-21344.626982094902,0.0
1527.7269993628713,7957.747065933869,11537.111247402361,5172.804734996219,-6851.918233189036,-753.3121751091157,-5185.654485801561,-21334.30192746262,0.0
1533.8124698554848,7959.866858003704,11538.790408536332,5174.698257126014,-6848.583728809523,-750.1324870043646,-5183.391786401176,-21320.832911558227,0.0
1532.8716632626933,7961.34356708606,11540.362389172387,5176.6394150326605,-6846.261484688074,-748.4652348146075,-5183.68951000649,-21313.818543417034,0.0
1530.5256012528207,7962.034285850388,11541.81528036632,5178.985477042533,-6844.284599948791,-745.8214491994212,-5181.152904889217,-21317.4864982345,0.0
1532.3953054941912,7961.236386588147,11541.791462477893,5178.139942003441,-6844.713321940443,-747.5006103333908,-5182.367617198897,-21325.084404642104,0.0
1531.6212241203757,7963.784900649633,11543.232444727613,5178.4138477203305,-6844.0106942319035,-747.31006722599,-5184.165867774993,-21335.19509827856,0.0
1530.6089638623087,7965.4045170625395,11544.137524487767,5179.330836424696,-6842.653074591672,-744.106561232814,-5181.879350486182,-21340.018220684644,0.0
1530.2040597590822,7965.392608118326,11543.280080504463,5178.342394055055,-6844.0106942319035,-745.4522719288321,-5180.104917798512,-21343.150273012543,0.0
1530.311240256995,7964.070715310734,11542.601270684348,5177.187226466437,-6846.606844070239,-748.6200510893707,-5180.438368236464,-21342.50719002507,0.0
1530.4541475875455,7961.295931309209,11540.767293275614,5175.841515770419,-6846.1185773575235,-747.2386135607147,-5180.890908116541,-21341.232932994324,0.0
1530.8471427465597,7960.807664596495,11541.160288434628,5177.187226466437,-6845.11822604367,-746.6193484616621,-5180.70036500914,-21331.050785692594,0.0
1533.0383884816692,7962.224828957788,11542.05345925057,5175.972514156757,-6848.9529060801115,-753.8838044313181,-5187.524190042932,-21319.856378132798,0.0
1535.265361049416,7961.653199635587,11541.505647816792,5175.269886448216,-6847.785829547281,-750.3825748328283,-5184.9399491488075,-21314.616442679275,0.0
1534.419826010325,7961.069661369171,11540.707748554552,5174.4124424649135,-6846.6902066797265,-746.7146200153625,-5180.116826742725,-21318.74884632103,0.0
1533.3122941985578,7961.58174597031,11541.362740486242,5174.483896130188,-6846.833114010277,-746.8932541785508,-5178.890205488832,-21324.107871216678,0.0
1536.9802490160234,7962.641642005228,11542.017732417931,5175.317522225067,-6846.976021340828,-746.8932541785508,-5175.555701109318,-21332.086863839086,0.0
1536.4443465264587,7963.308542881131,11543.006174787573,5176.472689813684,-6846.201939967012,-746.4168964100487,-5176.663232921085,-21339.744314967757,0.0
1532.9192990395436,7962.582097284165,11542.517908074858,5176.73468658636,-6845.72558219851,-746.2263533026479,-5175.627154774594,-21344.531710541203,0.0
1529.2394352778654,7961.319749197634,11541.112652657777,5176.758504474786,-6846.023305803824,-747.3815208912653,-5176.770413418999,-21344.043443828486,0.0
1527.6674546418087,7961.974741129325,11541.660464091556,5178.437665608755,-6843.58197224025,-746.8932541785508,-5180.438368236464,-21340.566032118422,0.0
1531.2996826266367,7963.2132713274295,11542.636997516984,5178.818751823557,-6842.87934453171,-745.7857223667836,-5182.5224334736595,-21329.145354618584,0.0
1533.6933804133596,7961.546019137674,11541.803371422106,5177.401587462264,-6843.212794969661,-743.6540213527369,-5181.152904889217,-21322.512072692196,0.0
1537.6709677803515,7963.046546108455,11543.589713053989,5179.592833197373,-6839.461477542708,-737.0326483705587,-5175.9963320451825,-21312.2703806694,0.0
1538.611774373143,7964.237440529709,11543.089537397062,5177.9613078402535,-6842.867435587497,-743.308661970573,-5178.747298158282,-21313.913814970732,0.0
1537.3136994539748,7963.77299170542,11543.018083731786,5177.044319135886,-6846.809296121853,-749.775218677988,-5181.069542279729,-21320.118374905473,0.0
1534.7413675040639,7962.463007842039,11543.04190162021,5176.377418259985,-6846.106668413312,-748.8939568062593,-5180.355005626976,-21330.121888044014,0.0
1533.252749477495,7961.939014296687,11542.363091800096,5176.151148319946,-6845.427858593196,-746.250171191073,-5179.211746982571,-21337.636431842137,0.0
1532.7883006532054,7961.498383360823,11541.029290048291,5175.496156388255,-6845.939943194336,-746.0239012510345,-5179.8071941931985,-21342.221375363966,0.0
1534.3364634008371,7963.737264872782,11542.422636521158,5176.972865470611,-6843.8558779571395,-743.3801156358483,-5179.378472201547,-21336.802805747255,0.0
1536.3609839169708,7963.379996546406,11543.196717894974,5179.8071941931985,-6838.937483997356,-737.9496370749251,-5177.413496406476,-21329.883709159763,0.0
1539.457309412234,7964.356529971835,11543.982708213003,5180.581275567015,-6839.020846606844,-736.9254678726458,-5174.96025389869,-21321.678446597314,0.0
1540.993563215653,7963.558630709595,11542.184457636908,5177.1514996338,-6845.844671640636,-745.5118166498949,-5176.436962981047,-21314.08054018971,0.0
1544.5186107025681,7964.701889354,11542.625088572771,5178.354302999268,-6845.082499211033,-746.9766167880387,-5176.508416646322,-21305.39891985876,0.0
1547.1266694851167,7967.976849012451,11546.042955561776,5182.42716191996,-6839.771110092234,-742.4154911546317,-5173.864631031136,-21305.589462966163,0.0
1540.1123013439244,7967.869668514538,11545.828594565948,5182.843974967399,-6839.473386486921,-743.4992050779738,-5176.9014118053365,-21313.818543417034,0.0
1534.920001667252,7968.060211621938,11546.67412960504,5182.2604367009835,-6840.033106864911,-745.9762654741844,-5176.651323976873,-21322.988430460697,0.0
1541.2674689325418,7973.240602354398,11551.806884560649,5186.0355720163625,-6836.793874039097,-741.6414097808158,-5172.042562566616,-21324.16741593774,0.0
1545.0068774152826,7975.074579763131,11553.86713190942,5187.7742778713955,-6835.090895016702,-737.8900923538623,-5169.482139560917,-21328.299819579493,0.0
1547.4720288672809,7977.015737669776,11556.248920751932,5189.679708945403,-6832.804377727892,-735.8774807819412,-5168.172155697537,-21327.644827647804,0.0
1547.4839378114932,7977.992271095205,11556.90391268362,5190.59669764977,-6832.125567907777,-736.0561149451295,-5169.339232230366,-21323.202791456522,0.0
1542.3630918000963,7971.406624945665,11550.60408119518,5185.428215861522,-6838.187220511965,-742.0582228282552,-5172.840461828856,-21318.22485277568,0.0
1534.9319106114647,7961.176841867084,11540.457660726088,5174.948344954478,-6848.286005204208,-751.6806497519963,-5184.058687277079,-21321.23781566145,0.0
1529.7515198790052,7961.569837026098,11539.933667180736,5173.459726927909,-6848.833816637986,-752.9549067827392,-5188.738902352612,-21319.32047564323,0.0
1533.9553771860355,7967.488582299736,11546.042955561776,5180.081099910088,-6842.057627381044,-747.2147956722896,-5183.713327894916,-21313.366003536954,0.0
1541.469920984155,7973.919412174513,11552.140334998601,5186.142752514276,-6836.19842682847,-741.1412341238887,-5177.5802216254515,-21314.199629631836,0.0
1544.6853359215438,7978.194723146819,11557.7375387785,5191.406505856223,-6830.756039323334,-734.984309966,-5171.887746291852,-21321.261633549875,0.0
1545.399872574297,7976.33692784966,11556.844367962558,5190.167975658118,-6831.637301195063,-734.7342221375363,-5171.1255738622485,-21329.347806670197,0.0
1542.6608154054102,7973.347782852311,11552.783417986078,5186.571474505928,-6835.257620235678,-738.1401801823259,-5172.923824438344,-21336.516991086155,0.0
1542.0415503063575,7970.9898118982255,11550.353993366718,5185.011402814083,-6837.1749602538985,-740.069429144759,-5174.460078241764,-21338.04133594536,0.0
1542.0177324179324,7972.752335641684,11552.878689539779,5188.500723468361,-6832.32801995939,-734.4364985322227,-5172.626100833031,-21329.824164438698,0.0
1543.2681715602503,7972.7642445858955,11552.259424440726,5189.608255280128,-6828.957788747239,-730.1135517830667,-5170.458672986347,-21317.41504456922,0.0
1546.1501360596876,7969.239197098981,11549.186916833887,5186.6786550038405,-6832.566198843641,-734.1030480942711,-5168.267427251237,-21306.303999618915,0.0
1546.11440922705,7967.2146765828475,11546.86467271244,5184.118231998142,-6837.544137524487,-740.7244210764494,-5169.708409500955,-21300.409072233702,0.0
1545.9119571754366,7963.201362383218,11541.422285207305,5175.793879993569,-6848.10737104102,-749.989579673814,-5178.652026604581,-21304.815381592347,0.0
1544.792516419457,7962.879820889479,11541.136470546204,5176.151148319946,-6845.844671640636,-745.7738134225709,-5178.806842879345,-21314.60453373506,0.0
1544.2208870972545,7963.260907104281,11542.52981701907,5177.746946844427,-6842.867435587497,-742.0463138840425,-5178.735389214069,-21324.381776933566,0.0
1541.9820055852947,7963.499085988531,11542.494090186434,5177.342042741201,-6843.3676112444255,-745.2140930445812,-5178.914023377258,-21331.527143461095,0.0
1537.2184279002743,7963.189453439006,11540.814929052465,5177.008592303249,-6843.58197224025,-744.0470165117512,-5177.782673677065,-21338.1723343317,0.0
1539.1714947511327,7964.487528358172,11541.898642975806,5176.663232921085,-6844.713321940443,-743.1419367515973,-5174.0313562501115,-21336.26690325769,0.0
1541.767644589469,7963.439541267469,11541.160288434628,5174.829255512353,-6848.369367813696,-748.8225031409839,-5174.460078241764,-21329.181081451225,0.0
1540.624385945064,7961.272113420785,11540.314753395538,5174.817346568139,-6845.928034250123,-746.3454427447734,-5174.924527066053,-21318.343942217805,0.0
1542.1963665811206,7961.677017524011,11540.112301343923,5174.305261967,-6846.594935126026,-746.1668085815852,-5174.793528679715,-21310.126770711144,0.0
1544.3399765393797,7963.594357542231,11542.160639748483,5176.17496620837,-6844.391780446705,-745.7499955341459,-5177.020501247462,-21303.612578226875,0.0
1545.2212384111085,7964.237440529709,11543.089537397062,5178.342394055055,-6841.224001286166,-744.499556391828,-5179.068839652021,-21304.577202708097,0.0
1546.9242174335034,7964.868614572974,11542.636997516984,5178.497210329819,-6841.05727606719,-742.748941592583,-5175.51997427668,-21313.74708975176,0.0
1545.4594172953596,7966.226234213206,11544.030343989853,5180.152553575363,-6840.104560530186,-740.8077836859374,-5173.114367545745,-21324.53659320833,0.0
1543.82789193824,7966.666865149069,11545.054513192132,5179.48565269946,-6840.473737800775,-740.9268731280629,-5172.3760130045675,-21332.813309436053,0.0
1539.8503045712482,7967.036042419659,11545.947684008073,5178.997385986745,-6840.569009354476,-740.5457869132613,-5170.970757587486,-21336.755169970405,0.0
1538.8380443131814,7968.846201939967,11547.781661416806,5181.200540666067,-6839.270934435308,-739.3191656593685,-5171.101755973825,-21334.44483479317,0.0
1543.3158073371005,7968.846201939967,11547.69829880732,5181.676898434569,-6837.567955412913,-737.3065540874474,-5170.792123424298,-21328.89526679012,0.0
1546.7336743261026,7967.774396960838,11546.840854824015,5181.3910837734675,-6837.234504974961,-737.0088304821336,-5169.017690736628,-21321.51172137834,0.0
1537.0397937370863,7965.64269594679,11544.399521260442,5178.628208716155,-6840.711916685026,-739.1167136077551,-5176.0320588778195,-21314.902257340374,0.0
1534.5150975640254,7967.905395347176,11546.828945879803,5181.855532597758,-6837.1749602538985,-737.5447329716983,-5173.376364318421,-21303.553033505814,0.0
1537.2779726213373,7966.035691105804,11545.030695303709,5179.497561643672,-6840.211741028099,-742.8084863136459,-5177.115772801162,-21310.26967804169,0.0
1539.9455761249485,7965.678422779428,11543.768347217176,5177.997034672891,-6842.974616085411,-744.9044604950548,-5171.947291012915,-21319.475291917995,0.0
1540.3504802281755,7965.797512221554,11544.566246479417,5180.04537307745,-6842.593529870609,-744.2732864517897,-5170.029950994694,-21327.77582603414,0.0
1540.2790265629,7966.166689492143,11545.423690462723,5179.688104751073,-6842.986525029623,-743.8326555159252,-5172.102107287678,-21331.26514668842,0.0
1538.611774373143,7966.80977247962,11545.280783132172,5179.414199034184,-6842.748346145372,-743.1300278073847,-5174.662530293377,-21336.207358536627,0.0
1538.445049154167,7966.404868376393,11544.185160264617,5179.116475428871,-6842.3077152095075,-742.1892212145932,-5172.638009777243,-21336.171631703994,0.0
1539.1953126395579,7966.202416324781,11544.863970084733,5179.831012081624,-6841.081093955616,-742.0820407166802,-5171.3518438022875,-21336.052542261867,0.0
1541.1721973788412,7968.429388892527,11547.257667871454,5181.331539052405,-6839.128027104756,-739.4025282688563,-5169.946588385207,-21326.64447633395,0.0
1539.564489910147,7970.4658183528745,11549.210734722314,5182.093711482008,-6838.258674177241,-739.676433985745,-5169.934679440994,-21315.128527280413,0.0
1540.5291143913637,7971.216081838265,11550.97325846577,5183.5823295085775,-6836.4246967685085,-739.5097087667693,-5169.636955835681,-21305.41082880297,0.0
1540.6958396103394,7972.668973032195,11552.497603324977,5185.964118351088,-6832.709106174192,-735.3415782923764,-5166.111908348766,-21305.78000607356,0.0
1541.0888347693533,7972.418885203731,11552.009336612262,5184.332592993968,-6836.0078837210685,-735.5202124555648,-5165.730822133964,-21313.699453974907,0.0
1539.8145777386105,7973.181057633335,11553.033505814543,5185.821211020537,-6834.15008842391,-736.175204387255,-5167.660071096398,-21323.95305494191,0.0
1537.659058836139,7973.6335975134125,11553.331229419855,5187.012105441792,-6832.828195616317,-734.8533115796619,-5168.291245139662,-21332.94430782239,0.0
1537.6114230592887,7974.336225221952,11553.569408304107,5187.262193270256,-6832.316111015178,-734.8652205238744,-5168.017339422773,-21341.375840324876,0.0
1540.1361192323493,7976.32501890545,11554.510214896898,5187.178830660768,-6832.113658963564,-735.7703002840283,-5168.731876075527,-21340.161128015196,0.0
1539.2667663048333,7977.277734442453,11555.54629304339,5188.667448687336,-6829.267421296765,-732.7930642308906,-5166.778809224667,-21336.254994313476,0.0
1537.3970620634627,7977.373005996153,11556.177467086654,5189.834525220167,-6828.2670699829105,-730.9233599895201,-5165.778457910814,-21324.000690718764,0.0
1539.6240346312097,7979.099802906973,11557.689903001648,5190.846785478234,-6829.088787133577,-731.2925372601092,-5162.610678750275,-21311.7940229009,0.0
1538.742772759481,7978.623445138472,11557.582722503736,5190.084613048631,-6829.517509125229,-732.9359715614412,-5162.789312913464,-21306.958991550604,0.0
1539.0166784763696,7977.527822270916,11557.011093181534,5190.727696036108,-6827.3619902227565,-729.8039192335403,-5161.908051041735,-21310.10295282272,0.0
1540.5648412240012,7975.753389583247,11555.177115772802,5189.691617889616,-6827.5882601627945,-729.6967387356274,-5162.574951917637,-21313.568455588567,0.0
1540.6958396103394,7974.467223608291,11553.855222965207,5188.155364086197,-6829.088787133577,-731.2806283158967,-5161.443602217445,-21322.357256417432,0.0
1541.3746494304546,7973.574052792349,11551.294799959509,5183.260788014839,-6837.901405850864,-742.0701317724677,-5170.66112503796,-21331.086512525235,0.0
1539.9693940133739,7971.918709546805,11548.793921674873,5180.557457678589,-6841.021549234552,-742.0939496608928,-5173.602634258459,-21338.196152220127,0.0
1537.3732441750376,7972.45461203637,11548.377108627434,5181.760261044056,-6837.5560464687005,-735.5321213997772,-5169.053417569266,-21335.778636544976,0.0
1536.706343299135,7970.727815125549,11547.007580042991,5180.664638176503,-6838.187220511965,-737.3303719758725,-5168.112610976475,-21329.169172507012,0.0
1540.410024949238,7971.299444447753,11548.115111854757,5181.748352099845,-6837.1749602538985,-738.4855395644898,-5166.516812451992,-21318.343942217805,0.0
1545.0187863594954,7970.013278472797,11548.698650121174,5182.367617198897,-6835.733978004179,-736.8540142073704,-5166.921716555218,-21311.84165867775,0.0
1551.2352552384468,7970.823086679251,11550.342084422506,5183.153607516925,-6834.709808801901,-736.4848369367813,-5166.290542511953,-21302.207322809798,0.0
1553.831405076783,7972.895242972233,11551.937882946986,5183.296514847476,-6834.638355136625,-735.9965702240668,-5161.860415264885,-21301.504695101255,0.0
1541.0650168809284,7971.549532276215,11551.306708903721,5182.129438314647,-6836.174608940045,-738.1759070149635,-5166.254815679316,-21308.411882744535,0.0
1540.7672932756147,7972.35934048267,11551.973609779625,5183.010700186375,-6834.852716132451,-737.0564662589838,-5170.518217707409,-21317.141138852334,0.0
1542.7799048475356,7972.990514525935,11552.55714804604,5183.987233611803,-6834.828898244026,-735.6035750650526,-5166.409631954079,-21323.452879284985,0.0
1542.720360126473,7971.882982714166,11551.056621075259,5183.487057954877,-6836.579513043271,-739.331074603581,-5167.540981654271,-21329.728892885003,0.0
1541.8748250873819,7972.621337255346,11551.15189262896,5184.487409268731,-6834.5311746387115,-738.3664501223643,-5168.636604521826,-21329.20489933965,0.0
1542.113003971633,7972.192615263693,11550.675534860457,5182.939246521099,-6835.186166570403,-737.6757313580364,-5168.588968744975,-21324.71522737152,0.0
1545.1140579131957,7970.715906181338,11549.079736335974,5181.5816268808685,-6835.6267975062665,-736.8182873747328,-5168.291245139662,-21317.093503075484,0.0
1548.6152875116857,7971.144628172989,11549.437004662352,5182.4509798083855,-6833.197372886906,-732.542976402427,-5164.146932553695,-21308.126068083435,0.0
1550.306357589868,7973.121512912273,11551.925974002774,5184.29686616133,-6830.9108555980965,-729.8158281777529,-5162.979856020865,-21298.563185880754,0.0
1548.8415574517242,7972.192615263693,11551.461525178485,5182.42716191996,-6834.745535634538,-732.1023454665627,-5162.991764965077,-21301.611875599167,0.0
1544.7210627541815,7970.656361460275,11548.662923288535,5180.176371463787,-6838.663578280467,-736.3062027735931,-5165.135374923336,-21311.24621146712,0.0
1543.8159829940275,7971.656712774128,11549.591820937116,5181.926986263033,-6837.6513180224,-738.1997249033886,-5165.147283867548,-21320.499461120275,0.0
1544.4828838699304,7972.657064087983,11551.306708903721,5183.344150624326,-6836.281789437958,-736.9731036494959,-5162.967947076651,-21325.77512340643,0.0
1544.2685228741045,7974.086137393489,11552.878689539779,5184.963767037233,-6835.650615394692,-736.3657474946558,-5164.468474047433,-21328.46654479847,0.0
1542.6965422380479,7974.455314664078,11552.854871651352,5185.452033749947,-6834.56690147135,-737.473279306423,-5168.529424023913,-21325.834668127496,0.0
1541.9581876968698,7976.241656295961,11555.343840991776,5187.369373768168,-6831.232397091836,-735.3058514597387,-5166.74308239203,-21320.749548948737,0.0
1542.0653681947826,7975.098397651555,11553.736133523082,5184.737497097195,-6833.245008663756,-735.6393018976903,-5165.409280640225,-21313.85427024967,0.0
1543.2086268391874,7973.764595899751,11551.675886174311,5183.3560595685385,-6835.12662184934,-736.4372011599311,-5165.766548966601,-21303.374399342625,0.0
1547.5792093651937,7971.561441220429,11550.87798691207,5182.617705027361,-6835.102803960915,-736.2942938293805,-5163.730119506255,-21295.82412871187,0.0
1548.317563906372,7971.227990782478,11550.306357589867,5181.426810606106,-6836.317516270595,-737.4494614179979,-5165.24255542125,-21301.39751460334,0.0
1552.4023317712767,7972.847607195384,11551.544887787972,5183.737145783341,-6834.959896630365,-736.3657474946558,-5166.838353945731,-21305.54182718931,0.0
1552.235606552301,7973.824140620813,11552.676237488165,5186.02366307215,-6831.351486533961,-732.8764268403784,-5166.04045468349,-21313.794725528605,0.0
1545.3046010205965,7974.955490321005,11553.43840991777,5187.738551038758,-6828.58861147665,-732.2928885739635,-5166.50490350778,-21321.023454665625,0.0
1546.007228729137,7974.693493548329,11553.474136750405,5187.012105441792,-6829.577053846291,-734.2221375363966,-5164.230295163182,-21326.846928385563,0.0
1545.8285945659488,7973.657415401836,11552.628601711314,5184.427864547668,-6833.340280217457,-736.734924765245,-5162.694041359763,-21326.191936453873,0.0
1541.4580120399426,7971.680530662554,11549.996725040342,5182.093711482008,-6836.7581472064585,-740.3671527500729,-5167.386165379508,-21326.799292608714,0.0
1541.44610309573,7972.180706319481,11551.187619461596,5182.89161074425,-6833.340280217457,-738.5689021739778,-5169.791772110443,-21318.927480484217,0.0
1546.435950720789,7974.5386772735665,11553.890949797846,5185.249581698335,-6830.839401932822,-735.4368498460768,-5164.206477274757,-21310.686491089135,0.0
1553.140686312455,7974.467223608291,11553.11686842403,5184.15395883078,-6831.875480079313,-734.9724010217874,-5163.09894546299,-21301.183153607515,0.0
1555.1532978843761,7976.527470957062,11554.93893688855,5186.285659844826,-6829.910504284243,-732.7454284540404,-5159.776350027688,-21299.98035024205,0.0
1550.2944486456554,7978.218541035245,11556.499008580395,5186.416658231165,-6832.08984107514,-734.746131081749,-5159.573897976075,-21304.51765798703,0.0
1541.8510071989567,7977.432550717216,11554.879392167486,5185.5473053036485,-6832.244657349902,-733.9958675963583,-5164.039752055781,-21316.247968036394,0.0
1543.434896779226,7977.813636932018,11554.438761231622,5185.285308530972,-6831.744481692976,-733.3051488320303,-5166.147635181403,-21325.29876563793,0.0
1543.3991699465882,7977.420641773004,11553.617044080956,5184.332592993968,-6835.114712905127,-736.5443816578442,-5168.993872848203,-21331.146057246293,0.0
1544.0541618782786,7977.670729601467,11554.724575892726,5185.154310144634,-6833.971454260723,-735.806027116666,-5168.362698804937,-21327.20419671194,0.0
1544.042252934066,7980.433604658779,11557.916172941686,5188.286362472535,-6830.220136833769,-733.6862350468319,-5163.360942235666,-21319.380020364293,0.0
1544.5067017583556,7980.981416092556,11558.892706367116,5189.179533288476,-6829.3269660178275,-734.4364985322227,-5161.181605444769,-21311.401027741886,0.0
1547.3410304809427,7980.862326650431,11558.761707980779,5188.286362472535,-6829.446055459953,-736.5324727136315,-5163.503849566217,-21305.791915017773,0.0
1547.5077556999183,7979.195074460674,11557.154000512084,5187.047832274429,-6830.529769383295,-736.3419296062307,-5164.992467592785,-21297.59856139954,0.0
1547.6387540862563,7978.599627250046,11555.963106090829,5186.261841956401,-6831.256214980261,-736.3895653830809,-5166.004727850853,-21299.408720919848,0.0
1547.6625719746817,7979.4451622891365,11557.249272065785,5186.107025681638,-6830.994218207585,-735.6393018976903,-5166.683537670968,-21305.78000607356,0.0
1546.9123084892908,7979.468980177562,11556.47519069197,5186.071298849,-6830.482133606445,-734.3412269785223,-5164.8614692064475,-21313.58036453278,0.0
1549.3298241644386,7979.766703782877,11555.236660493865,5185.428215861522,-6831.5182117529375,-733.364693553093,-5163.825391059956,-21320.9996367772,0.0
1547.1743052619668,7981.719770633734,11557.97571766275,5188.286362472535,-6828.112253708147,-728.1843028206333,-5161.657963213272,-21326.632567389737,0.0
1546.8646727124406,7981.803133243223,11559.33333730298,5190.9420570319335,-6824.218028950643,-725.754878201273,-5160.81242817418,-21319.999285463346,0.0
1545.8524124543737,7979.397526512286,11557.427906228972,5187.214557493406,-6830.696494602271,-734.877129468087,-5163.813482115743,-21318.641665823114,0.0
1549.1035542244,7980.290697328227,11558.178169714363,5187.738551038758,-6830.208227889556,-733.7576887121072,-5161.384057496382,-21314.22344752026,0.0
1553.4265009735561,7981.553045414759,11560.107418676796,5189.822616275954,-6826.849905621617,-729.2799256881881,-5160.443250903591,-21299.57544613882,0.0
1550.6398080278193,7981.969858462197,11560.64332116636,5190.025068327567,-6826.44500151839,-729.0774736365747,-5163.158490184052,-21292.965982100857,0.0
1548.9963737264873,7981.112414478895,11559.678696685145,5188.536450300999,-6827.683531716496,-730.8638152684573,-5160.609976122567,-21295.800310823444,0.0
1549.2345526107383,7982.231855234873,11560.321779672624,5189.191442232689,-6829.005424524089,-733.7815066005323,-5160.848155006818,-21299.087179426107,0.0
1548.9011021727868,7984.042014755181,11561.750852978128,5190.763422868746,-6827.457261776457,-733.1384236130547,-5161.515055882721,-21307.62589242651,0.0
1547.28148575988,7983.887198480418,11561.89376030868,5190.513335040282,-6827.219082892206,-733.3527846088805,-5159.609624808712,-21316.50996480907,0.0
1544.863970084732,7982.184219458025,11559.059431586093,5188.40545191466,-6829.5889627905035,-733.3408756646679,-5158.883179211746,-21322.29771169637,0.0
1550.2349039245923,7984.030105810969,11560.381324393686,5189.691617889616,-6827.540624385945,-731.6736234749108,-5157.716102678917,-21322.940794683844,0.0
1553.2240489219428,7984.018196866757,11560.976771604312,5191.275507469885,-6824.968292436033,-731.1615388737712,-5160.431341959378,-21318.725028432604,0.0
1549.3060062760137,7978.551991473196,11556.510917524607,5187.70282420612,-6827.481079664883,-735.1153083523379,-5164.563745601134,-21313.34218564853,0.0
1551.9497918912,7980.20733471874,11557.928081885899,5189.298622730602,-6825.575648590874,-732.3762511834512,-5160.621885066779,-21300.68297795059,0.0
1552.0807902775377,7981.23150392102,11558.916524255543,5188.857991794737,-6827.790712214408,-731.3163551485343,-5159.026086542297,-21293.7638813631,0.0
1551.99742766805,7981.267230753658,11559.107067362942,5186.63101922699,-6830.851310877034,-730.9829047105828,-5159.03799548651,-21297.05074996576,0.0
1550.0205429287666,7981.922222685348,11559.92878451361,5188.2268177514725,-6828.243252094486,-728.4582085375221,-5158.728362936984,-21304.43429537754,0.0
1548.4247444042849,7980.290697328227,11557.523177782674,5186.571474505928,-6830.065320559005,-731.3758998695971,-5161.634145324846,-21312.151291227277,0.0
1548.793921674874,7978.84971507851,11555.689200373941,5185.523487415223,-6831.8159353582505,-732.8049731751031,-5160.074073633003,-21322.619253190107,0.0
1547.9245687473576,7977.313461275091,11554.510214896898,5184.9042223161705,-6832.566198843641,-734.6865863606862,-5161.062516002644,-21331.527143461095,0.0
1546.4954954418515,7978.373357310006,11554.93893688855,5185.666394745774,-6831.375304422387,-734.8890384122996,-5160.443250903591,-21328.823813124847,0.0
1540.648203833489,7978.635354082683,11555.462930433903,5186.773926557541,-6828.8267903609,-733.9363228752954,-5161.574600603783,-21323.226609344947,0.0
1544.6377001446938,7977.015737669776,11554.807938502212,5185.785484187899,-6828.838699305114,-733.2813309436052,-5162.455862475512,-21312.22274489255,0.0
1547.3410304809427,7978.349539421583,11555.73683615079,5185.606850024711,-6829.767596953692,-733.9125049868703,-5162.098594149135,-21301.778600818143,0.0
1546.590766995552,7977.8255458762305,11554.962754776976,5184.916131260383,-6830.196318945344,-736.0084791682793,-5163.742028450468,-21292.918346324004,0.0
1546.9956710987788,7977.194371832966,11555.022299498038,5184.928040204596,-6830.279681554832,-733.6743261026194,-5161.00297128158,-21296.121852317185,0.0
1548.341381794797,7977.36109705194,11555.260478382288,5184.6422255434945,-6832.030296354077,-734.2340464806092,-5161.110151779493,-21305.76809712935,0.0
1548.0079313568456,7977.17055394454,11554.688849060087,5183.344150624326,-6832.530472011004,-735.1272172965506,-5162.2534104238985,-21316.581418474343,0.0
1545.9357750638617,7976.896648227651,11554.688849060087,5183.1655164611375,-6832.863922448954,-736.9731036494959,-5162.944129188227,-21324.73904525994,0.0
1542.2916381348211,7975.4437570337195,11552.807235874505,5181.057633335517,-6834.507356750288,-737.6757313580364,-5166.171453069828,-21330.19334170929,0.0
1543.3872610023757,7977.456368605642,11555.022299498038,5182.927337576887,-6832.173203684627,-733.1384236130547,-5161.848506320672,-21327.037471492964,0.0
1544.6853359215438,7978.7306256363845,11556.725278520433,5184.10632305393,-6830.863219821246,-729.9825533967286,-5157.835192121042,-21321.154453051964,0.0
1549.2821883875883,7977.730274322531,11555.951197146616,5183.40369534539,-6830.7203124906955,-729.3156525208257,-5156.882476584038,-21310.06722599008,0.0
1549.9729071519164,7978.921168743785,11557.404088340547,5185.36867114046,-6828.767245639838,-727.4578572236678,-5155.727308995421,-21301.052155221176,0.0
1549.3298241644386,7976.896648227651,11555.415294657052,5186.059389904788,-6827.504897553307,-724.8617073853318,-5153.869513698263,-21293.954424470496,0.0
1554.1053107936714,7977.646911713042,11556.546644357244,5188.441178747297,-6825.468468092961,-725.8263318665485,-5155.143770729006,-21294.585598513764,0.0
1551.7354308953738,7975.30084970317,11554.831756390637,5185.642576857348,-6829.2912391851905,-733.6505082141942,-5161.205423333195,-21307.12571676958,0.0
1547.7102077515317,7974.491041496716,11553.795678244145,5183.737145783341,-6832.08984107514,-735.7583913398158,-5161.193514388981,-21319.344293531656,0.0
1548.6986501211736,7976.420290459149,11556.070286588742,5186.773926557541,-6827.65971382807,-731.5545340327852,-5158.978450765448,-21323.47669717341,0.0
1548.9011021727868,7977.992271095205,11556.90391268362,5187.250284326043,-6828.052708987085,-730.1850054483419,-5158.704545048558,-21327.85918864363,0.0
1547.4243930904306,7975.670026973759,11554.164855514735,5183.3560595685385,-6833.54273226907,-733.841051321595,-5162.420135642875,-21327.180378823516,0.0
1548.0555671336956,7974.97930820943,11553.72422457887,5182.760612357912,-6832.030296354077,-733.4004203857307,-5163.742028450468,-21322.52398163641,0.0
1552.2236976080885,7976.9561929487145,11555.498657266538,5184.177776719204,-6830.36304416432,-732.7216105656153,-5161.919959985948,-21311.04375941551,0.0
1556.213193919293,7977.242007609814,11555.236660493865,5184.630316599281,-6829.529418069441,-732.4000690718764,-5158.609273494859,-21302.44550169405,0.0
1557.5469956710986,7977.1824628887525,11555.2723873265,5185.618758968923,-6830.089138447431,-731.2210835948339,-5155.620128497509,-21296.56248325305,0.0
1554.4268522874104,7976.658469343401,11555.558201987602,5185.606850024711,-6830.45831571802,-730.9829047105828,-5154.893682900542,-21298.979998928193,0.0
1555.3200231033518,7977.8969995415055,11557.22545417736,5187.345555879743,-6826.992812952168,-729.4823777398016,-5156.263211484985,-21306.11345651151,0.0
1553.2955025872182,7979.992973722915,11559.33333730298,5189.57252844749,-6824.01557689903,-727.8151255500444,-5154.774593458417,-21313.461275090656,0.0
1550.699352748882,7979.385617568075,11557.939990830113,5187.286011158681,-6827.504897553307,-729.7443745124776,-5157.894736842105,-21322.559708469045,0.0
1551.2114373500217,7980.671783543029,11558.940342143966,5188.4530876915105,-6826.7189072352785,-729.3156525208257,-5157.180200189352,-21326.56111372446,0.0
1550.2349039245923,7979.361799679649,11557.725629834287,5187.0954680512805,-6827.897892712321,-729.2799256881881,-5158.204369391631,-21322.02380597948,0.0
1554.9508458327625,7979.623796452326,11557.427906228972,5187.405100600807,-6827.957437433383,-728.1485759879957,-5156.620479811362,-21313.508910867506,0.0
1561.7389440339166,7982.958300831839,11560.750501664274,5190.4895171518565,-6824.563388332807,-724.0161723462406,-5148.450944081552,-21304.886835257617,0.0
1561.98903186238,7983.267933381366,11562.608296961433,5191.037328585634,-6823.658308572653,-724.1709886210037,-5148.391399360489,-21296.25285070352,0.0
1554.7126669485117,7979.266528125948,11558.154351825939,5186.476202952227,-6826.837996677405,-729.2203809671253,-5156.465663536599,-21291.989448675427,0.0
1557.3564525636978,7982.422398342275,11560.679047999,5189.94170571808,-6822.110145825021,-726.552777463514,-5156.70384242085,-21293.77579030731,0.0
1555.3081141591392,7982.029403183261,11560.726683775849,5190.620515538195,-6822.181599490297,-725.5524261496597,-5155.822580549121,-21299.789807134646,0.0
1553.8433140209954,7980.52887621248,11559.154703139793,5188.417360858873,-6825.670920144574,-727.5293108889432,-5157.608922181003,-21310.57931059122,0.0
1552.7834179860783,7980.040609499764,11559.011795809243,5188.774629185249,-6824.289482615918,-724.4329853936798,-5157.847101065256,-21318.86793576315,0.0
1552.580965934465,7979.04025818591,11557.475542005823,5187.23837538183,-6825.599466479299,-727.0172262878034,-5157.501741683091,-21324.477048487264,0.0
1551.4734341226979,7977.3372791635165,11555.439112545477,5184.308775105543,-6831.649210139275,-733.6624171584068,-5158.252005168481,-21326.013302290685,0.0
1556.3084654729935,7978.075633704694,11556.641915910945,5186.107025681638,-6828.338523648185,-727.5888556100058,-5155.977396823884,-21319.118023591614,0.0
1558.1186249933012,7977.849363764656,11556.66573379937,5185.714030522624,-6826.837996677405,-727.1005888972913,-5156.025032600734,-21311.162848857635,0.0
1554.1172197378842,7975.467574922144,11553.569408304107,5182.343799310472,-6831.458667031875,-734.0673212616335,-5159.323810147611,-21304.350932768055,0.0
1554.2124912915847,7974.776856157818,11553.545590415682,5182.879701800037,-6830.410679941169,-733.6624171584068,-5160.10980046564,-21297.550925622687,0.0
1555.3795678244144,7975.824843248521,11552.783417986078,5182.355708254685,-6829.910504284243,-732.2571617413258,-5159.669169529775,-21297.265110961587,0.0
1553.2002310335176,7974.383860998803,11550.592172250968,5179.5094705878855,-6833.876182707022,-733.841051321595,-5160.800519229967,-21303.00522207204,0.0
1552.8429627071412,7974.32431627774,11551.318617847934,5180.950452837604,-6831.006127151797,-730.1373696714917,-5159.157084928635,-21310.222042264842,0.0
1552.9977789819043,7974.717311436754,11551.663977230099,5180.712273953352,-6832.244657349902,-733.5671456047064,-5160.359888294103,-21321.452176657276,0.0
1550.306357589868,7973.228693410186,11550.103905538255,5178.794933935132,-6834.66217302505,-736.5086548252063,-5163.432395900942,-21329.657439219725,0.0
1547.9602955799953,7968.226936840914,11545.983410840712,5176.210693041008,-6835.090895016702,-736.3538385504434,-5165.373553807586,-21331.324691409485,0.0
1543.6492577750519,7964.809069851912,11542.982356899149,5171.649567407601,-6841.283546007228,-742.248765935656,-5167.517163765846,-21327.263741433006,0.0
1544.9592416384323,7964.320803139198,11541.624737258917,5169.232051732453,-6844.32032678143,-742.8442131462834,-5168.195973585962,-21315.712065546828,0.0
1551.1638015731714,7966.547775706944,11544.554337535204,5172.935733382557,-6838.615942503617,-738.6046290066154,-5167.398074323721,-21301.802418706568,0.0
1550.4849917530562,7964.130260031796,11541.44610309573,5168.5175150797,-6843.522427519188,-745.1307304350933,-5172.840461828856,-21298.44409643863,0.0
1545.2450562995339,7958.49732941926,11535.336814714692,5161.824688432247,-6851.489511197385,-752.8953620616763,-5177.103863856949,-21306.399271172613,0.0
1543.9707992687909,7958.294877367647,11534.574642285088,5162.062867316497,-6851.953960021674,-752.7762726195509,-5176.055876766245,-21312.23465383676,0.0
1548.1389297431836,7962.6892777820785,11539.647852519634,5167.564799542696,-6845.844671640636,-747.8816965481925,-5171.590022686539,-21317.6770413419,0.0
1542.315456023246,7957.413615495918,11534.586551229302,5161.943777874372,-6851.382330699472,-751.2757456487694,-5175.37706694613,-21330.18143276508,0.0
1538.0044182183028,7953.281211854162,11531.263955794,5158.454457220095,-6855.2051017917,-753.7528060449802,-5179.449925866823,-21340.006311740435,0.0
1540.3504802281755,7954.591195717543,11533.46711047332,5160.931517616305,-6852.3112283480505,-752.7524547311258,-5177.532585848602,-21337.71979445162,0.0
1540.3623891723878,7951.804502771806,11531.359227347699,5157.454105906241,-6856.9557165909455,-758.6235642279133,-5180.831363395479,-21335.218916166985,0.0
1540.2671176186875,7949.172626100833,11528.882166951487,5154.667412960504,-6859.980588420934,-758.7783805026766,-5184.9399491488075,-21329.181081451225,0.0
1535.2891789378411,7946.802746202535,11526.345561834214,5152.345168839057,-6860.171131528335,-758.9331967774397,-5188.631721854699,-21324.73904525994,0.0
1533.4194746964708,7942.146349015428,11522.86815012415,5149.5703848375315,-6863.755723736313,-764.86385099529,-5195.622272107466,-21319.296657754807,0.0
1531.1448663518736,7938.514121030599,11519.605099409911,5146.069155239042,-6868.031034708618,-773.1405672230128,-5199.004412263831,-21321.79753603944,0.0
1527.8222709165718,7937.704312824147,11517.96166510858,5144.509083547198,-6868.626481919245,-776.367891104614,-5201.493381604254,-21331.229419855783,0.0
1524.2853144854441,7935.560702865887,11515.115427441779,5143.484914344918,-6869.198111241448,-775.6890812844988,-5206.638045504075,-21342.400009527155,0.0
1521.7129825355332,7932.976461971764,11512.424006049743,5140.055138411704,-6874.235594643356,-778.1423237922842,-5206.84049755569,-21353.11805931845,0.0
1521.5105304839199,7931.571206554683,11509.780220434557,5136.8516324185275,-6878.4513608946,-780.6432020769199,-5204.863612816406,-21359.167802978423,0.0
1522.6895159609624,7932.976461971764,11510.721027027348,5138.637974050411,-6874.199867810719,-777.2610619205553,-5201.064659612602,-21354.761493619782,0.0
1520.8079027753793,7929.46332342906,11508.220148742712,5135.648829053061,-6876.879380258543,-780.1311174757802,-5204.160985107866,-21352.165343781446,0.0
1507.7318820299986,7921.269969810827,11501.622593648959,5128.301010473916,-6885.834906306381,-787.0740319516973,-5210.889538587956,-21352.12961694881,0.0
1508.9346853954662,7916.4825742373805,11497.025741182915,5123.787520617359,-6888.8121423595185,-790.6109883828249,-5215.188667448688,-21347.98530436284,0.0
1513.3648126425353,7917.554379216511,11497.764095724093,5124.787871931214,-6887.132981225549,-790.8848940997136,-5216.391470814155,-21341.006663054286,0.0
1513.4481752520228,7915.470313979314,11495.45376054686,5122.286993646579,-6889.217046462745,-791.6113396966792,-5216.55819603313,-21341.363931380663,0.0
1511.757105173841,7912.743165754639,11491.881077283093,5119.333575481865,-6893.456630602414,-796.1962832185112,-5218.213539278675,-21347.854305976503,0.0
1512.6502759897821,7916.399211627893,11496.394567139649,5123.620795398384,-6890.443667716639,-794.8148456898552,-5216.32001714888,-21356.583562084303,0.0
1515.139245330205,7918.626184195639,11498.454814488421,5126.193127348294,-6885.870633139019,-786.4309489642195,-5213.973955139008,-21361.692499151486,0.0
1512.1024645560049,7913.386248742117,11493.131516425412,5121.405731774849,-6888.752597638456,-790.7896225460132,-5218.427900274501,-21372.29145950066,0.0
1509.9112188208956,7908.884667829774,11488.749024955192,5115.558440166486,-6897.6843057978695,-803.9609148450944,-5225.156453754592,-21378.05538849953,0.0
1510.1493977051466,7909.551568705675,11488.653753401491,5115.2964433938105,-6900.054185696167,-804.7349962189102,-5226.228258733722,-21376.018959039186,0.0
1514.2341655700513,7915.255952983489,11493.0243359275,5119.7503885293045,-6896.088507273387,-801.4600365604587,-5223.489201564835,-21361.537682876722,0.0
1518.8786538129464,7915.267861927701,11494.119958795052,5120.917465062134,-6894.052077813041,-798.6257078378716,-5219.344888978868,-21347.36603926379,0.0
1522.0821598061225,7912.27871693035,11491.285630072465,5119.405029147141,-6893.30181432765,-795.7556522826468,-5217.094098522695,-21338.92259781709,0.0
1519.462192079361,7908.384492172847,11486.784049160122,5114.403272577869,-6898.029665180034,-799.2806997695619,-5223.5963820627485,-21343.745720223174,0.0
1517.878302499092,7908.348765340209,11486.271964558982,5113.331467598739,-6898.541749781173,-800.6859551866429,-5225.168362698804,-21349.90264438106,0.0
1517.6758504474785,7909.968381753115,11488.808569676256,5116.17770526554,-6895.909873110199,-799.6617859843635,-5220.190424017958,-21360.91841777767,0.0
1519.2121042508977,7912.2906258745625,11491.702443119904,5118.738128271238,-6894.111622534104,-796.1962832185112,-5215.414937388726,-21366.360805282806,0.0
1520.8079027753793,7916.911296229033,11496.81138018709,5123.894701115272,-6888.276239869954,-789.5153655152702,-5212.235249283975,-21366.670437832334,0.0
1518.6642928171202,7917.161384057496,11497.478281062993,5123.299253904645,-6889.109865964833,-793.9931285391893,-5221.309864773939,-21366.479894724933,0.0
1516.3777755283106,7915.363133481401,11495.537123156346,5121.072281336898,-6889.4194985143595,-793.1595024443108,-5218.868531210365,-21364.145741659275,0.0
1518.9620164224339,7914.827230991836,11494.917858057293,5120.38156257257,-6888.990776522707,-790.7538957133755,-5216.7249212521065,-21352.939425155262,0.0
1523.7136851632417,7915.92285385939,11496.311204530162,5121.893998487564,-6887.383069054013,-788.7293751972418,-5214.974306452861,-21341.614019209126,0.0
1528.5487165135376,7920.626886823349,11499.669526798103,5125.966857408256,-6884.262925670325,-786.7286725695334,-5212.413883447162,-21331.37232718633,0.0
1530.9305053560477,7921.66296496984,11500.479335004555,5127.467384379038,-6882.166951488915,-784.775605718675,-5212.4615192240135,-21332.872854157114,0.0
1530.156423982232,7920.8650657076,11500.276882952941,5125.597680137667,-6886.525625070709,-788.6221946993289,-5214.771854401248,-21338.148516443274,0.0
1523.4040526137155,7916.839842563757,11497.918911998857,5124.72832721015,-6888.58587241948,-791.0635282629017,-5216.260472427817,-21349.914553325274,0.0
1517.985482997005,7915.851400194116,11497.942729887282,5124.990323982827,-6886.608987680197,-792.492601568408,-5213.461870537867,-21358.858170428903,0.0
1519.974276680501,7919.852805449534,11501.741683091084,5128.717823521356,-6882.071679935215,-788.7174662530293,-5210.401271875242,-21363.597930225496,0.0
1524.7497633097337,7925.77155072317,11507.517521034173,5134.124484193854,-6877.081832310157,-782.0365485497883,-5205.423333194395,-21357.798274393983,0.0
1529.7634288232175,7930.29694952394,11510.697209138923,5137.673349569193,-6874.759588188709,-780.559839467432,-5203.910897279402,-21350.64099892224,0.0
1536.7539790759852,7931.702204941022,11511.018750632662,5138.423613054584,-6873.628238488517,-780.4050231926688,-5205.601967357584,-21341.042389886923,0.0
1534.5865512293008,7930.963850399842,11510.12557981672,5138.233069947183,-6872.639796118875,-779.154584050351,-5205.447151082821,-21331.312782465273,0.0
1530.2874223685699,7928.57015261312,11507.64851942051,5135.410650168809,-6875.545578506738,-781.9055501634502,-5205.506695803883,-21324.73904525994,0.0
1530.1326060938068,7926.819537813875,11506.588623385593,5134.410298854955,-6876.748381872205,-783.4537129110819,-5208.19811719592,-21328.168821193158,0.0
1533.574290971234,7929.606230759611,11510.328031868334,5136.792087697465,-6874.199867810719,-781.036197235934,-5206.221232456636,-21331.646232903222,0.0
1535.241543160991,7932.67873836645,11514.615251784853,5140.984036060283,-6869.686377954163,-776.2368927182761,-5200.409667680912,-21339.23223036662,0.0
1536.3967107496085,7936.668234677655,11517.413853674801,5145.187893367313,-6866.17323941146,-772.5570289565978,-5198.778142323792,-21346.651502611036,0.0
1535.9679887579566,7936.156150076516,11516.353957639885,5143.9850900018455,-6867.1854996695265,-773.0929314461625,-5199.456952143908,-21351.200719300232,0.0
1537.099338458149,7937.859129098909,11518.10457243913,5144.532901435624,-6866.149421523035,-770.9969572647537,-5198.015969894189,-21348.104393804966,0.0
1538.1949613257036,7938.65702836115,11519.46219207936,5146.557421951757,-6863.434182242573,-766.292924300796,-5196.205810373882,-21344.90088781179,0.0
1539.9217582365236,7937.740039656784,11519.366920525661,5147.033779720258,-6862.636282980332,-765.8284754765066,-5195.014915952625,-21335.469003995448,0.0
1540.2790265629,7936.846868840842,11518.164117160191,5144.532901435624,-6866.411418295711,-774.0932827600169,-5199.099683817531,-21324.798589981005,0.0
1542.1725486926955,7937.251772944069,11518.783382259246,5144.294722551372,-6867.971489987555,-777.2372440321303,-5200.07621724296,-21317.033958354423,0.0
1543.411078890801,7939.5859260097295,11520.653086500617,5146.581239840181,-6865.137161264968,-772.2593053512841,-5197.88497150785,-21316.355148534305,0.0
1543.8517098266652,7940.419552104608,11521.629619926045,5147.736407428799,-6863.148367581472,-770.3538742772758,-5195.919995712779,-21319.832560244373,0.0
1543.6254398866267,7941.610446525863,11522.308429746161,5149.3798417301305,-6861.1476649537635,-767.3647292799257,-5194.7529191799495,-21328.83572206906,0.0
1542.4583633537968,7944.313776862113,11524.535402313906,5151.023276031464,-6859.921043699871,-765.4354803174924,-5191.894772568938,-21334.52819740266,0.0
1543.887436659303,7944.837770407465,11526.119291894176,5153.178794933935,-6856.800900316182,-762.8631483675815,-5187.559916875569,-21339.541862916143,0.0
1547.32912153673,7944.802043574827,11526.571831774252,5155.191406505855,-6853.79984637462,-760.0288196449944,-5185.678303689986,-21336.100178038716,0.0
1548.2222923526715,7945.159311901203,11526.619467551103,5155.798762660696,-6853.787937430407,-758.6354731721259,-5184.535045045582,-21329.716983940787,0.0
1550.0205429287666,7942.646524672356,11524.321041318082,5152.654801388583,-6857.098623921496,-761.8032523326644,-5184.558862934006,-21320.928183111926,0.0
1551.092347907896,7942.229711624916,11524.070953489618,5151.964082624255,-6854.764470855836,-760.4218148040085,-5186.39284034274,-21311.46057246295,0.0
1552.2236976080885,7942.2654384575535,11524.17813398753,5152.095081010593,-6855.490916452802,-761.8866149421523,-5189.47725689379,-21303.100493625738,0.0
1555.6892003739408,7944.063689033649,11524.916488528708,5149.868108442846,-6862.076562602342,-767.9839943789783,-5190.048886215992,-21305.125014141868,0.0
1556.1179223655927,7946.540749429859,11527.86990669342,5154.048147861451,-6858.134702067988,-764.0897696214743,-5185.047129646721,-21307.35198670962,0.0
1556.3084654729935,7948.541452057569,11531.359227347699,5157.608922181003,-6854.180932589421,-760.4813595250713,-5181.903168374608,-21316.23605909218,0.0
1556.9872752931087,7950.601699406338,11533.145568979582,5159.073722319147,-6851.632418527935,-757.0039478150064,-5178.199486724504,-21324.012599662976,0.0
1551.3543446805722,7948.934447216581,11530.608963862309,5157.644649013641,-6852.21595679435,-757.9566633520105,-5179.878647858474,-21329.800346550277,0.0
1550.6398080278193,7950.577881517915,11531.680768841437,5158.942723932809,-6851.525238030023,-757.6827576351218,-5182.141347258858,-21326.870746273988,0.0
1554.8674832232748,7956.889621950566,11538.194961325704,5164.432747214795,-6844.975318713119,-750.2753943349152,-5176.210693041008,-21316.021698096356,0.0
1559.5476982988073,7959.402409179414,11541.54137464943,5167.362347491083,-6841.354999672503,-747.1671598954395,-5172.304559339292,-21306.161092288363,0.0
1560.7147748316372,7957.806610654932,11539.612125686997,5165.397371696012,-6844.165510506666,-751.6211050309334,-5174.912618121841,-21300.480525898976,0.0
1562.679750626708,7956.353719461001,11538.492684931018,5165.24255542125,-6842.4982583169085,-749.1202267462978,-5176.889502861124,-21295.58594982762,0.0
1563.0608368415096,7957.1397097790295,11539.886031403885,5167.076532829982,-6839.568658040621,-746.4883500753241,-5178.50911927403,-21297.13411257525,0.0
1562.1319391929308,7956.591898345251,11539.242948416408,5166.242906735103,-6842.593529870609,-751.0971114855812,-5178.97356809832,-21304.18420754908,0.0
1563.3823783352486,7957.616067547531,11540.564841224,5167.171804383682,-6844.367962558279,-752.7881815637635,-5177.0919549127375,-21313.366003536954,0.0
1564.3112759838277,7959.414318123626,11542.208275525334,5169.398776951429,-6842.260079432658,-750.1324870043646,-5172.935733382557,-21319.558654527482,0.0
1568.4198617371576,7961.808015910348,11545.114057913195,5172.340286171929,-6836.90105453701,-745.3689093193443,-5168.386516693362,-21321.618901876256,0.0
1571.2303725713195,7963.4038144348315,11546.72176538189,5173.435909039484,-6834.971805574576,-744.5710100571033,-5167.552890598484,-21318.689301599967,0.0
1563.025110008872,7963.189453439006,11545.554688849059,5172.0306536224025,-6838.4611262288545,-746.1072638605224,-5169.374959063004,-21314.592624790846,0.0
1557.6541761690119,7957.6637033243815,11540.195663953413,5166.60017506148,-6843.641516961314,-750.1086691159395,-5172.661827665668,-21309.995772324804,0.0
1563.5133767215868,7959.9264027247655,11542.255911302183,5168.2317004186,-6841.736085887305,-749.6918560685002,-5170.970757587486,-21300.83779422535,0.0
1566.9431526548012,7964.499437302386,11544.863970084733,5170.911212866424,-6838.901757164718,-749.9538528411763,-5173.495453760546,-21289.86965660559,0.0
1569.4083041067995,7968.286481561978,11548.150838687396,5174.638712404952,-6834.709808801901,-744.844915773992,-5172.602282944606,-21290.048290768784,0.0
1571.8139108377347,7969.155834489494,11550.294448645654,5176.567961367385,-6832.0064784656515,-740.7006031880243,-5168.005430478561,-21294.09733180105,0.0
1567.2766030927528,7965.964237440529,11547.996022412632,5175.615245830381,-6833.125919221631,-741.7128634460912,-5166.838353945731,-21302.409774861408,0.0
1562.0843034160805,7964.023079533884,11545.911957175436,5173.257274876296,-6836.519968322208,-746.2858980237107,-5168.755693963951,-21310.722217921768,0.0
1560.6552301105744,7964.809069851912,11546.150136059689,5174.067083082749,-6835.686342227329,-744.5591011128909,-5167.648162152184,-21316.85532419123,0.0
1563.8111003269005,7966.29768787848,11548.389017571646,5174.507714018613,-6834.388267308162,-742.4750358756944,-5166.123817292978,-21316.760052637535,0.0
1566.6573379937001,7968.429388892527,11551.032803186832,5176.353600371559,-6831.375304422387,-739.438255101494,-5165.135374923336,-21312.81819210318,0.0
1568.0268665781434,7968.500842557803,11550.842260079433,5177.532585848602,-6829.1006960777895,-737.7590939675242,-5163.349033291453,-21303.148129402587,0.0
1568.0745023549937,7967.298039192335,11549.56800304869,5176.984774414824,-6830.827492988608,-739.8788860373583,-5162.551134029212,-21291.989448675427,0.0
1569.074853668848,7968.012575845089,11549.66327460239,5175.722426328293,-6833.185463942694,-742.5226716525445,-5161.646054269058,-21284.224817048842,0.0
1569.2534878320362,7968.012575845089,11549.913362430852,5175.51997427668,-6833.066374500569,-740.25997225216,-5161.110151779493,-21284.415360156247,0.0
1570.7897416354554,7969.560738592721,11551.675886174311,5177.032410191675,-6831.149034482348,-738.2830875128766,-5160.848155006818,-21287.976134475797,0.0
1569.5035756604998,7970.453909408662,11552.080790277538,5178.235213557142,-6829.1006960777895,-734.6984953048988,-5159.419081701311,-21296.33621331301,0.0
1569.6226651026252,7970.596816739211,11552.140334998601,5178.27094038978,-6829.89859534003,-735.4487587902894,-5162.813130801889,-21305.887186571472,0.0
1568.6937674540463,7970.156185803347,11551.806884560649,5177.794582621278,-6830.744130379121,-739.5573445436195,-5164.4089293263705,-21312.86582788003,0.0
1568.6104048445584,7970.477727297086,11552.831053762928,5180.0930088543,-6826.361638908903,-736.6991979326073,-5161.157787556344,-21309.888591826893,0.0
1569.3368504415241,7969.6321922579955,11552.342787050213,5178.92593232147,-6827.016630840592,-734.4126806437976,-5161.777052655397,-21308.781060015124,0.0
1571.3375530692326,7969.120107656855,11551.652068285886,5179.116475428871,-6826.992812952168,-734.6032237511984,-5159.9549841908765,-21300.385254345274,0.0
1574.0766102381194,7969.155834489494,11550.49690069727,5176.806140251636,-6830.898946653884,-743.3324798589981,-5163.730119506255,-21290.048290768784,0.0
1575.7676803163017,7969.596465425357,11552.461876492338,5178.437665608755,-6829.422237571527,-741.4865935060526,-5162.622587694488,-21281.068946832518,0.0
1575.9820413121274,7971.216081838265,11554.84366533485,5180.378823515401,-6827.19526500378,-738.0568175728381,-5160.455159847804,-21279.223060479573,0.0
1572.3140864946618,7969.929915863309,11552.56905699025,5178.163759891867,-6830.089138447431,-740.045611256334,-5162.324864089173,-21286.59469694714,0.0
1571.7305482282468,7970.453909408662,11552.723873265015,5177.937489951828,-6829.922413228455,-739.8907949815709,-5162.050958372286,-21293.430430925146,0.0
1571.9330002798602,7972.78806247432,11555.522475154965,5180.545548734376,-6826.49263729524,-734.4126806437976,-5158.537819829583,-21302.945677350974,0.0
1571.778184005097,7974.5386772735665,11556.034559756104,5181.855532597758,-6825.921007973037,-733.2456041109675,-5154.953227621605,-21308.34042907926,0.0
1573.076258924265,7974.336225221952,11555.582019876028,5181.795987876695,-6825.075472933947,-732.5548853466396,-5154.286326745701,-21307.792617645482,0.0
1567.562417753854,7972.156888431055,11553.140686312454,5178.735389214069,-6826.933268231105,-733.7338708236821,-5155.108043896368,-21307.149534658,0.0
1563.1203815625724,7971.537623332003,11552.819144818715,5178.378120887693,-6827.433443888032,-735.567848232415,-5158.33536777797,-21300.68297795059,0.0
1567.086059985352,7971.216081838265,11553.974312407332,5179.783376304773,-6825.670920144574,-736.044206000917,-5158.883179211746,-21289.34566306024,0.0
1572.409358048362,7971.561441220429,11556.094104477168,5181.3553569408305,-6822.884227198838,-734.293591201672,-5156.025032600734,-21279.9137792439,0.0
1573.7550687443804,7973.550234903923,11557.939990830113,5183.68951000649,-6821.193157120656,-732.8049731751031,-5155.381949613256,-21279.139697870083,0.0
1569.7536634889634,7973.109603968061,11556.034559756104,5182.129438314647,-6823.384402855764,-734.2340464806092,-5156.6681155882125,-21286.63042377978,0.0
1561.572218814941,7970.108550026496,11553.11686842403,5179.259382759422,-6826.290185243627,-735.8179360608785,-5158.99035970966,-21302.909950518337,0.0
1564.9781768597304,7968.500842557803,11551.961700835413,5177.365860629626,-6827.862165879684,-736.3538385504434,-5160.0264378561515,-21311.66302451456,0.0
1568.0506844665686,7970.430091520237,11554.307762845285,5179.0926575404455,-6824.611024109658,-734.4722253648603,-5156.882476584038,-21313.23500515062,0.0
1569.5035756604998,7972.990514525935,11557.058728958384,5182.308072477835,-6822.360233653485,-733.4837829952185,-5155.727308995421,-21310.222042264842,0.0
1567.8601413591678,7972.811880362746,11555.939288202404,5181.414901661893,-6823.634490684228,-736.1156596661923,-5159.145175984423,-21306.33972645155,0.0
1567.3123299253903,7972.35934048267,11553.890949797846,5179.700013695286,-6825.83764536355,-736.7111068768198,-5158.132915726356,-21297.741468730088,0.0
1568.9200373940846,7972.156888431055,11554.18867340316,5180.04537307745,-6825.08738187816,-736.1394775546174,-5156.537117201874,-21288.77403373804,0.0
1569.4321219952244,7970.751633013974,11553.986221351544,5179.7714673605615,-6824.849202993908,-736.8540142073704,-5158.764089769621,-21281.962117648458,0.0
1569.9322976521516,7972.633246199559,11555.832107704491,5182.105620426221,-6822.491232039823,-733.1026967804169,-5157.335016464115,-21282.52183802645,0.0
1571.1827367944693,7974.371952054591,11557.46363306161,5184.046778332867,-6819.049547162396,-728.3867548722468,-5156.179848875498,-21287.368778320957,0.0
1570.7540148028177,7973.288238131247,11556.844367962558,5183.475149010664,-6818.97809349712,-727.6841271637062,-5155.679673218571,-21296.098034428756,0.0
1568.4198617371576,7973.907503230302,11557.916172941686,5183.844326281253,-6820.597709910027,-731.5426250885728,-5155.548674832233,-21305.48228246825,0.0
1568.2174096855442,7973.800322732387,11556.653824855157,5181.795987876695,-6824.325209448556,-737.7590939675242,-5157.299289631477,-21311.579661905074,0.0
1565.680804568271,7973.073877135423,11554.307762845285,5177.877945230765,-6831.3991223108105,-740.9268731280629,-5161.27687699847,-21309.5194145563,0.0
1567.6457803633418,7972.716608809046,11554.819847446424,5178.997385986745,-6829.231694464127,-738.1044533496882,-5158.966541821234,-21305.87527762726,0.0
1569.2534878320362,7971.823437993105,11553.390774140918,5177.901763119191,-6829.029242412514,-738.8070810582287,-5157.906645786318,-21299.194359924022,0.0
1570.71828797018,7971.811529048892,11553.140686312454,5177.639766346514,-6827.826439047047,-738.5331753413401,-5157.9900083958055,-21292.441988555503,0.0
1574.2314265128825,7973.705051178687,11556.177467086654,5180.962361781816,-6824.01557689903,-734.8294936912367,-5155.250951226919,-21280.735496394565,0.0
1573.6002524696173,7972.323613650032,11555.462930433903,5180.390732459614,-6824.432389946469,-733.841051321595,-5156.00121471231,-21281.58103143366,0.0
1570.6587432491172,7971.728166439405,11554.998481609611,5179.283200647847,-6826.44500151839,-735.1510351849756,-5157.120655468289,-21290.46510381622,0.0
1571.8972734472227,7970.6087256834235,11552.902507428204,5176.651323976873,-6830.60122304857,-741.9986781071924,-5161.181605444769,-21298.813273709216,0.0
1569.9442065963642,7969.00101821473,11550.556445418331,5174.948344954478,-6831.994569521439,-742.8561220904961,-5160.2169809635525,-21304.088935995376,0.0
1565.5498061819328,7970.35863785496,11551.72352195116,5177.508767960177,-6828.243252094486,-739.0809867751174,-5156.00121471231,-21310.698400033343,0.0
1565.7522582335462,7968.619931999929,11550.92562268892,5175.758153160932,-6829.684234344204,-741.8557707766417,-5159.669169529775,-21312.86582788003,0.0
1567.8601413591678,7968.881928772605,11550.663625916244,5175.436611667193,-6829.970049005306,-742.1177675493178,-5159.657260585563,-21309.45986983524,0.0
1571.194645738682,7968.012575845089,11549.472731494989,5173.257274876296,-6832.185112628839,-743.3920245800608,-5161.56269165957,-21301.671420320232,0.0
1570.480109085929,7965.035339791951,11546.126318171262,5170.363401432645,-6834.400176252374,-744.8568247182045,-5163.968298390507,-21294.442691183212,0.0
1571.0041026312813,7964.177895808647,11543.73262038454,5168.93432812714,-6834.9122608535135,-744.1541970096641,-5163.253761737753,-21288.666853240127,0.0
1566.0142550062224,7966.821681423833,11544.208978153041,5169.922770496782,-6834.983714518789,-743.070483086322,-5160.467068792016,-21287.39259620938,0.0
1557.0825468468092,7965.737967500491,11544.661518033117,5169.625046891468,-6834.328722587098,-742.0463138840425,-5161.110151779493,-21295.35967988758,0.0
1558.976068976605,7962.034285850388,11543.530168332925,5169.44641272828,-6833.256917607969,-740.9983267933382,-5162.074776260711,-21305.85145973884,0.0
1559.3333373029814,7960.712393042794,11542.541725963285,5169.410685895642,-6834.352540475524,-743.6659302969496,-5164.158841497907,-21311.75829606826,0.0
1562.0962123602933,7963.808718538058,11546.388314943939,5171.97110890134,-6832.828195616317,-744.3447401170649,-5162.241501479686,-21316.760052637535,0.0
1561.441220428603,7965.011521903525,11547.317212592518,5172.507011390905,-6833.566550157495,-747.1671598954395,-5163.622939008342,-21313.782816584393,0.0
1562.8822026783214,7964.058806366522,11546.245407613387,5171.054120196974,-6834.376358363949,-746.3335338005609,-5163.968298390507,-21307.17335254643,0.0
1566.180980225198,7963.939716924397,11546.650311716614,5171.137482806462,-6834.019090037572,-744.8925515508422,-5161.896142097522,-21300.063712851537,0.0
1565.9070745083095,7964.642344632936,11547.10285159669,5170.935030754848,-6834.2691778660355,-744.7734621087168,-5159.83589474875,-21292.775438993456,0.0
1564.0135523785139,7965.821330109979,11548.043658189483,5173.102458601532,-6832.125567907777,-742.4512179872693,-5160.633794010992,-21282.402748584325,0.0
1562.679750626708,7965.606969114154,11548.377108627434,5173.947993640623,-6829.064969245152,-739.1286225519676,-5162.158138870198,-21285.713435075413,0.0
1562.1438481371433,7963.237089215855,11545.935775063861,5171.792474738152,-6830.625040936996,-740.2480633079474,-5162.908402355589,-21294.823777398014,0.0
1562.417753854032,7961.534110193461,11543.565895165564,5167.850614203798,-6838.06813106984,-747.5244282218159,-5163.65866584098,-21304.55338481967,0.0
1562.6440237940703,7962.427281009403,11544.649609088907,5169.255869620879,-6836.174608940045,-744.97591416033,-5160.15743624249,-21312.925372601094,0.0
1561.2149504885645,7963.701538040145,11545.554688849059,5170.732578703234,-6833.3998249385195,-743.5706587432492,-5160.443250903591,-21322.84552313015,0.0
1559.6548787967201,7961.879469575625,11543.92316349194,5169.3511411745785,-6834.864625076663,-749.2035893557857,-5165.135374923336,-21328.907175734334,0.0
1557.2849988984226,7961.236386588147,11543.97079926879,5169.648864779892,-6833.840455874384,-749.2035893557857,-5166.6359018941175,-21327.406648763554,0.0
1556.2489207519307,7960.748119875433,11542.887085345448,5167.81488737116,-6835.805431669455,-748.8939568062593,-5167.267075937383,-21316.998231521786,0.0
1558.8569795344793,7961.891378519837,11544.066070822491,5168.46987930285,-6837.1749602538985,-749.8704902316884,-5167.445710100571,-21304.493840098607,0.0
1559.6786966851453,7960.021674278466,11542.708451182261,5166.850262889943,-6838.520670949917,-752.1570075204983,-5169.756045277806,-21295.51449616234,0.0
1558.892706367117,7958.247241590796,11542.077277138995,5165.397371696012,-6838.770758778381,-754.4554337535205,-5172.816643940431,-21296.026580763482,0.0
1556.8443679625582,7957.294526053793,11539.86221351546,5165.087739146486,-6838.854121387868,-753.4550824396663,-5172.959551270981,-21304.67247426179,0.0
1557.5946314479488,7957.925700097057,11540.945927438803,5166.052363627703,-6837.734680631888,-750.5135732191662,-5170.720669759023,-21312.68719371684,0.0
1558.7021632597161,7958.3067863118595,11541.30319576518,5165.302100142312,-6840.0807426417605,-751.3829261466824,-5168.267427251237,-21318.510667436778,0.0
1558.6068917060159,7959.283319737288,11541.565192537855,5166.373905121442,-6838.16340262354,-748.0126949345305,-5165.397371696012,-21323.214700400735,0.0
1555.7130182623657,7960.879118261771,11542.601270684348,5168.731876075527,-6835.805431669455,-746.5717126848119,-5162.967947076651,-21322.321529584795,0.0
1554.1172197378842,7959.188048183588,11541.481829928367,5167.660071096398,-6835.686342227329,-746.9289810111884,-5165.766548966601,-21320.273191180237,0.0
1558.3448949333397,7958.878415634061,11540.803020108253,5166.099999404552,-6836.543786210634,-746.3811695774111,-5165.909456297151,-21309.971954436376,0.0
1562.286755467694,7959.247592904651,11540.922109550378,5166.207179902465,-6837.151142365473,-750.0491243948767,-5166.326269344591,-21296.514847476195,0.0
1556.0345597561047,7959.354773402564,11540.61247700085,5165.433098528651,-6839.449568598496,-754.1577101482068,-5169.02959968084,-21288.3572206906,0.0
1558.3210770449145,7957.687521212807,11538.766590647907,5163.432395900942,-6838.973210829994,-752.9906336153767,-5169.970406273631,-21291.2034583574,0.0
1559.0832494745177,7958.830779857212,11539.695488296484,5164.766197652747,-6836.38896993587,-750.5969358286541,-5168.886692350289,-21300.05180390732,0.0
1557.142091567872,7958.783144080361,11540.93401849459,5166.230997790891,-6834.75744457875,-745.6666329246581,-5165.492643249713,-21310.15058859957,0.0
1555.260478382289,7958.628327805597,11540.410024949239,5165.635550580263,-6837.722771687676,-747.9293323250428,-5165.766548966601,-21318.772664209453,0.0
1551.890247170137,7957.949517985483,11538.885680090032,5163.122763351415,-6843.3318844117875,-756.3846827159538,-5167.755342650097,-21326.763565776073,0.0
1552.1522439428131,7956.96107561584,11538.194961325704,5162.062867316497,-6841.843266385219,-753.0620872806521,-5165.730822133964,-21324.179324881952,0.0
1555.129479995951,7958.3067863118595,11539.95748506916,5164.504200880071,-6838.615942503617,-749.0487730810224,-5162.098594149135,-21317.700859230325,0.0
1554.6412132832363,7957.365979719068,11539.219130527983,5162.872675522952,-6840.259376804949,-752.4547311258119,-5166.754991336243,-21311.401027741886,0.0
1553.6527709135946,7958.068607427609,11539.62403463121,5164.206477274757,-6838.258674177241,-752.669092121638,-5167.600526375334,-21301.38560565913,0.0
1555.046117386463,7957.092074002178,11537.99250927409,5162.241501479686,-6840.4022841355,-753.276448276478,-5168.243609362811,-21292.882619491367,0.0
1556.8800947951959,7955.4724575892715,11536.539618080158,5159.585806920287,-6843.1413413043865,-755.6939639516258,-5168.696149242888,-21295.073865226477,0.0
1556.5823711898822,7955.234278705021,11536.694434354922,5159.5024443108,-6843.90351373399,-756.9205852055186,-5168.172155697537,-21302.55268219196,0.0
1552.4261496597019,7956.294174739939,11537.277972621336,5161.407875384808,-6842.533985149546,-755.9916875569396,-5169.648864779892,-21311.960748119876,0.0
1550.1039055382546,7954.626922550181,11536.229985530634,5160.705247676267,-6842.36725993057,-756.777677874968,-5175.365158001918,-21323.309971954437,0.0
1546.507404386064,7953.340756575226,11534.2054650145,5158.311549889544,-6843.843969012927,-754.896064689385,-5173.674087923735,-21332.753764714987,0.0
1543.9946171572158,7953.817114343728,11535.70599198528,5160.038346800364,-6841.759903775731,-751.8950107478222,-5170.339583544222,-21329.76461971764,0.0
1547.0790337082665,7953.900476953215,11535.360632603115,5158.847452379109,-6843.427155965488,-754.2172548692695,-5171.911564180277,-21323.98878177455,0.0
1550.7946243025824,7953.578935459476,11534.610369117725,5155.774944772271,-6847.881101100982,-759.3619187690915,-5175.7343352725065,-21315.450068774153,0.0
1551.020894242621,7955.270005537659,11537.15888317921,5158.883179211746,-6844.927682936269,-758.7307447258264,-5174.483896130188,-21309.066874676224,0.0
1552.4618764923396,7956.710987787376,11539.100041085858,5161.491237994295,-6841.307363895654,-757.5279413603587,-5171.113664918036,-21301.278425161214,0.0
1552.104608165963,7958.366331032921,11541.410376263091,5164.170750442119,-6838.282492065666,-756.6824063212676,-5173.376364318421,-21301.38560565913,0.0
1553.057323702967,7960.521849935394,11541.982005585296,5165.075830202273,-6837.877587962439,-756.6585884328425,-5178.354302999268,-21311.412936686098,0.0
1553.4384099177687,7959.974038501617,11540.731566442975,5162.58686086185,-6841.771812719943,-759.5762797649173,-5178.092306226591,-21320.5232790087,0.0
1550.1634502593172,7958.735508303512,11539.909849292311,5162.4439535312995,-6841.56936066833,-757.837573909885,-5174.686348181802,-21327.883006532054,0.0
1546.483586497639,7959.533407565751,11542.065368194782,5165.302100142312,-6837.841861129801,-752.4309132373869,-5170.70876081481,-21331.955865452746,0.0
1546.6264938281897,7958.163878981309,11541.053107936716,5164.087387832632,-6838.0085863487775,-752.7167278984882,-5171.411388523351,-21331.36041824212,0.0
1552.1522439428131,7957.6637033243815,11540.672021721914,5164.694743987471,-6836.9486903138595,-752.6571831774254,-5167.957794701711,-21325.477399801122,0.0
1558.547346984953,7956.163176353601,11539.242948416408,5163.670574785192,-6837.448865970788,-749.1559535789355,-5165.492643249713,-21316.319421701668,0.0
1551.2709820710843,7953.483663905777,11535.848899315832,5160.431341959378,-6838.806485611018,-747.7506981618544,-5165.218737532824,-21309.87668288268,0.0
1549.8538177097907,7951.1733287285415,11533.359929975408,5157.477923794666,-6841.8194484967935,-757.944754407798,-5173.102458601532,-21304.23184332593,0.0
1548.6510143443234,7946.445477876158,11528.953620616765,5150.392101988198,-6850.48915988353,-765.7570218112312,-5177.008592303249,-21308.185612804496,0.0
1547.7221166957443,7946.552658374071,11530.108788205382,5154.202964136214,-6844.367962558279,-755.5272387326502,-5171.78056579394,-21313.032553099005,0.0
1544.9592416384323,7945.599942837068,11529.894427209554,5154.929409733179,-6843.843969012927,-752.0498270225853,-5171.268481192799,-21319.344293531656,0.0
1544.0660708224914,7946.147754270844,11529.334706831565,5155.298587003769,-6847.345198611417,-755.7773265611137,-5172.507011390905,-21324.42941271042,0.0
1544.5781554236307,7943.78978331676,11525.773932512013,5152.285624117993,-6850.346252552979,-764.4946737247009,-5174.019447305899,-21333.492119256167,0.0
1546.483586497639,7940.074192722444,11521.534348372345,5147.5339553771855,-6851.691963248998,-765.0186672700531,-5172.447466669842,-21334.48056162581,0.0
1546.269225501813,7939.204839794928,11521.260442655455,5146.497877230694,-6853.275852829267,-766.6025568503223,-5177.187226466437,-21331.384236130543,0.0
1543.7921651056026,7936.811142008206,11518.71192859397,5145.402254363139,-6855.097921293788,-768.1983553748042,-5182.439070864172,-21327.75200814572,0.0
1545.9357750638617,7936.692052566081,11517.11613006949,5143.365824902793,-6856.479358822444,-770.1156953930249,-5183.010700186375,-21317.950947058787,0.0
1545.8881392870114,7937.859129098909,11517.223310567402,5139.519235922139,-6856.574630376143,-771.0088662089662,-5180.771818674415,-21307.816435533907,0.0
1546.7694011587403,7938.6093925843,11517.806848833816,5138.352159389309,-6858.682513501765,-771.2946808700674,-5183.260788014839,-21310.90085208496,0.0
1547.0194889872037,7936.358602128128,11516.270595030397,5136.6253624784895,-6864.815619771229,-773.4621087167517,-5182.701067636849,-21315.688247658403,0.0
1545.7095051238232,7936.9421403945435,11517.532943116927,5138.8523350462365,-6862.81491714352,-773.3906550514764,-5183.260788014839,-21325.274947749505,0.0
1541.767644589469,7937.882946987334,11519.03347008771,5140.92449133922,-6860.445037245223,-774.6410941937942,-5184.368319826605,-21331.527143461095,0.0
1541.1126526577787,7939.145295073865,11519.54555468885,5141.198397056109,-6861.266754395889,-776.6894325983529,-5185.440124805736,-21335.75481865655,0.0
1542.1725486926955,7939.8479227824055,11521.832071977658,5144.747262431449,-6857.670253243698,-774.462460030606,-5187.14310382813,-21335.445186107023,0.0
1540.6362948892765,7937.442316051471,11520.414907616365,5143.6873663965325,-6857.920341072162,-773.6526518241525,-5185.797393132112,-21332.968125710813,0.0
1541.3031957651795,7937.632859158871,11519.152559529835,5142.413109365789,-6859.21841599133,-775.4628113444602,-5185.523487415223,-21324.44132165463,0.0
1545.0068774152826,7937.894855931547,11519.890914071013,5142.925193966929,-6859.1826891586925,-775.7724438939865,-5186.249933012189,-21314.830803675097,0.0
1547.1862142061796,7936.54914523553,11519.235922139322,5141.889115820437,-6859.26605176818,-775.4628113444602,-5187.417009545019,-21308.030796529732,0.0
1546.4240417765764,7936.215694797577,11518.700019649757,5141.317486498235,-6859.099326549205,-774.9626356875332,-5187.440827433444,-21311.05566835972,0.0
1546.6503117166146,7936.54914523553,11519.533645744637,5143.246735460668,-6857.717889020549,-773.878921764191,-5187.821913648245,-21317.450771401862,0.0
1547.0194889872037,7936.811142008206,11520.15291084369,5142.806104524803,-6857.765524797399,-773.2239298325006,-5186.726290780691,-21324.703318427306,0.0
1544.0660708224914,7936.525327347104,11519.414556302512,5142.222566258389,-6858.9206923860165,-774.1885543137173,-5186.785835501753,-21332.94430782239,0.0
1539.219130527983,7935.334432925849,11517.949756164367,5139.995593690642,-6860.576035631561,-776.1178032761505,-5188.857991794737,-21342.79300468617,0.0
1539.5763988543595,7935.453522367974,11517.580578893778,5139.781232694815,-6860.516490910499,-775.6771723402861,-5188.548359245211,-21341.24484193854,0.0
1537.9329645530277,7933.548091293966,11516.60404546835,5138.018708951358,-6862.957824474071,-777.7731465216951,-5190.9420570319335,-21339.48231819508,0.0
1531.1567752960862,7931.97611065791,11514.639069673278,5136.196640486837,-6864.636985608041,-779.5713970977903,-5191.573231075198,-21331.253237744208,0.0
1538.6236833173555,7934.441262109907,11516.794588575749,5138.5903382735605,-6861.647840610691,-776.0344406666627,-5187.941003090371,-21318.820299986306,0.0
1538.7784995921186,7932.631102589599,11514.805794892254,5137.1136291912035,-6861.624022722265,-775.5819007865857,-5187.929094146159,-21310.329222762757,0.0
1538.766590647906,7931.273482949369,11513.507719973086,5135.636920108847,-6863.053096027772,-779.0950393292883,-5190.334700877093,-21311.710660291414,0.0
1537.0159758486611,7929.5824128711865,11512.054828779153,5133.898214253815,-6865.696881642957,-784.6088804996994,-5195.538909497978,-21321.440267713064,0.0
1535.2891789378411,7928.200975342531,11511.161657963212,5134.076848417004,-6864.91089132493,-783.5489844647823,-5197.789699954151,-21333.158668818214,0.0
1534.634187006151,7928.081885900405,11509.851674099833,5132.969316605237,-6866.983047617913,-783.6204381300576,-5196.658350253959,-21343.960081219,0.0
1532.1690355541527,7927.283986638164,11508.696506511216,5131.0757944754405,-6869.710195842587,-786.0379538052053,-5195.800906270654,-21353.773051250144,0.0
1532.6096664900174,7930.213586914451,11511.80474095069,5134.124484193854,-6866.077967857759,-781.512555004436,-5192.871305994367,-21348.342572689216,0.0
1535.2058163283534,7931.892748048421,11512.578822324505,5135.2320160056215,-6863.767632680525,-780.4050231926688,-5193.395299539719,-21342.98354779357,0.0
1536.884977462323,7932.512013147473,11513.186178479345,5135.327287559321,-6863.588998517336,-781.0600151243591,-5192.252040895314,-21334.742558398484,0.0
1533.9911040186732,7931.547388666258,11512.650275989783,5134.672295627631,-6865.00616287863,-782.5843599835656,-5194.33610613251,-21325.20349408423,0.0
1533.6814714691468,7930.630399961891,11512.447823938168,5134.791385069756,-6865.196705986031,-782.8820835888794,-5193.990746750346,-21314.93798417301,0.0
1534.1697381818615,7930.082588528113,11513.400539475173,5135.494012778297,-6864.184445727964,-781.4530102833733,-5191.644684740474,-21316.307512757456,0.0
1533.7410161902096,7929.522868150124,11514.246074514263,5135.803645327824,-6864.517896165916,-782.1675469361263,-5193.240483264955,-21323.71487605766,0.0
1530.0016077074686,7928.689242055245,11513.245723200409,5134.493661464443,-6865.827880029296,-783.501348687932,-5194.883917566288,-21333.27775826034,0.0
1526.1788366152398,7928.772604664734,11513.281450033048,5135.220107061408,-6865.696881642957,-782.6439047046283,-5193.716841033458,-21338.815417319176,0.0
1524.7378543655211,7930.058770639689,11514.32943712375,5136.494364092152,-6864.458351444853,-781.488737116011,-5193.514388981845,-21346.62768472261,0.0
1525.428573129849,7930.1897690260275,11514.257983458476,5136.541999869001,-6864.779892938592,-782.0008217171506,-5195.288821669515,-21348.425935298703,0.0
1529.3942515526287,7929.73722914595,11513.793534634187,5135.863190048886,-6865.184797041818,-782.2390006014016,-5193.597751591333,-21343.316998231523,0.0
1530.6446906949463,7929.510959205912,11513.019453260371,5135.589284331997,-6863.970084732137,-782.1199111592762,-5193.907384140859,-21335.659547102852,0.0
1527.7031814744464,7928.427245282569,11512.066737723366,5134.3983899107425,-6864.577440886978,-782.4771794856526,-5196.467807146558,-21326.858837329775,0.0
1526.9886448216935,7928.534425780483,11511.352201070615,5133.4099475411,-6865.291977539731,-783.2988966363187,-5198.123150392103,-21315.85497287738,0.0
1529.9777898190437,7929.868227532288,11512.257280830769,5133.993485807516,-6864.470260389065,-783.5608934089947,-5197.88497150785,-21316.70050791647,0.0
1531.180593184511,7930.880487790355,11513.186178479345,5134.577024073931,-6864.089174174263,-784.3468837270232,-5196.551169756045,-21325.477399801122,0.0
1529.7515198790052,7931.404481335707,11514.615251784853,5136.518181980576,-6862.171834156043,-782.679631537266,-5194.217016690385,-21334.61156001215,0.0
1526.1907455594526,7927.319713470802,11510.721027027348,5133.338493875825,-6864.565531942765,-785.3829618735151,-5198.516145551116,-21346.544322113125,0.0
1529.3108889431408,7925.319010843094,11507.791426751062,5131.480698578667,-6865.994605248272,-786.6453099600454,-5200.564483955674,-21353.999321190182,0.0
1534.6818227830013,7928.653515222609,11511.864285671754,5136.780178753253,-6857.932250016374,-776.8323399289036,-5192.954668603855,-21349.52155816626,0.0
1522.7252427936,7927.057716698126,11509.851674099833,5132.826409274686,-6862.636282980332,-779.5713970977903,-5194.014564638772,-21345.13906669604,0.0
1521.2247158228186,7924.151934310264,11506.350444501342,5127.753199040139,-6869.829285284713,-788.9437361930677,-5198.20651300159,-21340.554123174206,0.0
1524.237678708594,7922.437046343655,11503.718567830369,5123.632704342597,-6875.081129682448,-794.7553009687927,-5202.148373535943,-21332.777582603416,0.0
1522.2846118577359,7921.281878755038,11503.194574285017,5123.97806372476,-6874.938222351897,-794.4694863076913,-5202.493732918108,-21324.71522737152,0.0
1524.0233177127682,7922.2226853478305,11505.159550080087,5125.407137030266,-6873.163789664227,-792.8498698947844,-5201.457654771616,-21324.08405332825,0.0
1526.2979260573654,7924.128116421838,11506.791075437208,5127.157751829512,-6871.329812255494,-789.336731352082,-5199.897583079772,-21325.370219303208,0.0
1525.2261210782358,7924.795017297742,11507.291251094135,5127.503111211676,-6871.174995980731,-789.3724581847197,-5200.02858146611,-21333.777933917267,0.0
1522.1536134713976,7921.913052798303,11504.730828088435,5125.216593922866,-6873.8664173727675,-792.6474178431712,-5201.541017381104,-21343.12645512412,0.0
1521.5224394281324,7923.604122876486,11506.933982767758,5127.562655932738,-6871.1869049249435,-790.7896225460132,-5197.801608898363,-21350.438546870628,0.0
1520.8674474964423,7924.699745744041,11507.517521034173,5128.158103143366,-6869.734013731013,-790.3132647775112,-5197.253797464586,-21352.12961694881,0.0
1518.3427513233814,7924.163843254476,11506.874438046694,5127.038662387386,-6869.007568134047,-790.6467152154626,-5200.504939234612,-21347.330312431153,0.0
1521.2604426554562,7927.5817102434785,11511.054477465299,5132.528685669372,-6862.755372422457,-784.0253422332843,-5196.9798917476965,-21337.4101619021,0.0
1523.5588688884786,7926.569449985412,11509.649222048218,5130.432711487963,-6865.875515806146,-787.2169392822478,-5197.88497150785,-21330.872151529406,0.0
1524.4044039275698,7925.140376679905,11508.43450973854,5128.979820294032,-6869.424381181487,-791.8495185809302,-5199.3616805902075,-21323.845874444,0.0
1520.1648197879017,7923.163491940622,11505.862177788627,5127.848470593839,-6869.317200683573,-791.7185201945921,-5201.660106823229,-21323.88160127664,0.0
1519.3550115814483,7922.0678690730665,11505.338184243275,5127.753199040139,-6869.388654348848,-791.0635282629017,-5200.504939234612,-21329.645530275513,0.0
1519.1287416414098,7921.1508803687,11504.504558148397,5125.812041133493,-6871.246449646006,-791.8137917482925,-5200.362031904061,-21338.708236821265,0.0
1518.4975675981445,7920.876974651813,11504.00438249147,5125.085595536528,-6872.175347294586,-793.6715870454505,-5202.624731304446,-21347.544673426975,0.0
1514.746250171191,7918.661911028277,11502.456219743839,5123.858974282635,-6872.627887174662,-794.6362115266671,-5207.495489487379,-21359.751341244842,0.0
1515.6394209871323,7920.2219827201225,11504.528376036822,5125.240411811291,-6870.889181319631,-792.2425137399443,-5206.673772336713,-21361.859224370462,0.0
1518.1283903275555,7921.627238137203,11506.922073823545,5126.955299777897,-6868.948023412984,-791.1349819281771,-5203.148724849799,-21352.272524279357,0.0
1520.4625433932154,7921.007973038151,11506.10035667288,5125.919221631407,-6870.639093491167,-793.0285040579728,-5200.600210788312,-21340.518396341573,0.0
1523.2135095063145,7921.186607201338,11506.278990836068,5126.717120893647,-6869.781649507862,-790.3132647775112,-5197.468158460411,-21330.526792147244,0.0
1523.7851388285171,7921.686782858265,11506.48144288768,5126.717120893647,-6869.329109627785,-792.5045105126204,-5199.7784936376465,-21323.524332950263,0.0
