EEG 1,EEG 2,EEG 3,EEG 4,EEG 5,EEG 6,EEG 7,EEG 8,Trigger
1388.4757146855145,9072.436153172841,12360.364651871789,7555.022299498038,-6221.9350843450975,517.7532585848602,-4545.429644934828,-20185.946254934766,0.0
1384.1884947689962,9071.566800245324,12358.399676076717,7553.438409917768,-6223.5547007580035,514.5735704801091,-4550.514764113588,-20174.75184737497,0.0
1380.3657236767674,9066.243502182313,12353.207376400045,7547.841206137869,-6229.223358203178,508.1308316611191,-4553.944540046802,-20180.527685318055,0.0
1378.174477941658,9065.731417581173,12353.731369945397,7548.924920061211,-6227.413198682871,511.11997665846934,-4554.623349866917,-20171.750793433406,0.0
1387.6301796464234,9070.483086321981,12358.899851733646,7555.343840991777,-6220.303558987977,520.2184100368581,-4550.395674671461,-20157.507696155197,0.0
1396.0617121489095,9074.11531430681,12362.686895993236,7559.440517800894,-6216.242609011498,521.921389059253,-4546.144181587581,-20153.744469784033,0.0
1391.5958580692027,9076.104107990306,12363.306161092289,7558.428257542827,-6217.076235106377,518.6464294008015,-4546.322815750769,-20148.79034899161,0.0
1388.4161699644517,9072.805330443429,12359.459572111633,7554.486397008473,-6220.029653271089,518.3487057954877,-4550.121768954574,-20152.70839163754,0.0
1387.7254512001236,9071.828797018,12357.89950041979,7554.950845832763,-6219.088846678297,518.3248879070626,-4547.2398044551355,-20181.397038245574,0.0
1393.4536533663609,9073.400777654057,12360.186017708598,7555.248569438077,-6221.553998130295,516.907723545769,-4540.523159919257,-20189.578482919598,0.0
1388.4995325739396,9068.101297479472,12354.54117815185,7549.246461554951,-6225.150499282486,514.1091216558195,-4549.264324971269,-20191.781637598917,0.0
1383.6883191120692,9066.124412740188,12352.433295026229,7548.138929743183,-6225.043318784573,512.5371410197629,-4553.896904269952,-20183.302469319584,0.0
1396.573796750049,9074.091496418385,12360.32892503915,7555.5820198760275,-6217.576410763303,519.8849595989067,-4547.739980112063,-20169.34518670247,0.0
1395.4424470498568,9078.116719562226,12362.47253499741,7556.189376030868,-6220.446466318528,516.1336421719532,-4546.072727922306,-20155.899988686502,0.0
1391.643493846053,9077.580817072663,12361.30545846458,7558.4520754312525,-6215.837704908272,524.0769079617246,-4540.320707867643,-20137.774575594998,0.0
1385.153119250213,9072.459971061266,12357.494596316565,7556.094104477167,-6217.23105138114,521.6236654539391,-4542.511953602753,-20143.06214682537,0.0
1388.832983011891,9069.125466681751,12355.398622135153,7553.426500973556,-6221.863630679822,513.8471248831435,-4546.656266188721,-20167.118214134724,0.0
1390.8098677511746,9071.149987197885,12357.875682531365,7554.629304339024,-6220.053471159514,515.4905591844755,-4546.239453141282,-20176.883548389018,0.0
1388.8687098445287,9075.544387612315,12361.996177228906,7557.8089924437745,-6217.111961939015,519.2656944998541,-4545.536825432741,-20181.349402468724,0.0
1387.165730822134,9074.031951697321,12360.805282807652,7556.510917524606,-6218.088495364443,518.4082505165504,-4544.834197724201,-20184.660088959812,0.0
1387.9874479728,9068.946832518563,12358.113861415617,7555.1294799959505,-6217.040508273739,520.8734019685485,-4545.393918102191,-20189.042580430032,0.0
1391.8697637860914,9068.518110526911,12358.60212812833,7555.260478382289,-6217.612137595942,519.8373238220565,-4546.668175132933,-20182.921383104782,0.0
1394.1324631864761,9067.303398217231,12355.303350581455,7551.151892628958,-6222.911617770526,516.300367390929,-4550.514764113588,-20175.50211086036,0.0
1402.1352736973104,9078.009539064315,12365.056775891533,7562.513025407732,-6211.574302880178,527.7686806676154,-4543.286034976569,-20148.433080665232,0.0
1380.7587188357816,9065.433693975861,12351.814029927176,7548.174656575821,-6225.603039162563,509.3098171381616,-4561.256631793308,-20152.4821216975,0.0
1382.7713304077026,9070.042455386118,12356.315610839521,7553.521772527256,-6219.1007556225095,515.4310144634127,-4555.623701180772,-20143.4670509286,0.0
1391.059955579638,9076.08029010188,12363.1275269291,7559.833512959908,-6214.408631602765,518.31297896285,-4543.095491869169,-20146.765828475476,0.0
1389.0235261192918,9073.46032237512,12360.507559202339,7555.629655652878,-6220.208287434278,513.7875801620808,-4544.107752127235,-20167.630298735865,0.0
1389.5951554414944,9069.649460227103,12356.41088239322,7551.640159341674,-6224.126330080207,511.16761243531954,-4551.074484491577,-20188.24468116779,0.0
1394.1324631864761,9075.079938788027,12362.913165933274,7559.107067362943,-6214.515812100678,520.9686735222489,-4544.357839955698,-20183.80264497651,0.0
1392.09603372613,9073.18641665823,12361.531728404618,7558.297259156489,-6213.694094950012,520.4565889211092,-4547.382711785687,-20162.33081856128,0.0
1404.4098820419076,9071.578709189538,12359.685842051673,7555.320023103352,-6216.516514728387,520.1707742600079,-4545.775004316993,-20163.104899935097,0.0
1402.5520867447497,9076.890098308335,12364.163605075591,7559.416699912469,-6213.0271940741095,521.230670294925,-4542.654860933304,-20181.575672408762,0.0
1389.892879046808,9074.472582633187,12361.043461691905,7557.523177782673,-6215.992521183034,516.7052714941557,-4545.072376608452,-20155.733263467526,0.0
1394.4659136244275,9079.783971751984,12366.080945093812,7561.953305029742,-6209.81177913672,524.5770836186517,-4539.141722390601,-20141.46634830089,0.0
1383.0452361245914,9070.304452158794,12357.423142651287,7551.759248783799,-6219.648567056288,515.5858307381759,-4547.02544345931,-20152.267760701674,0.0
1393.5370159758488,9073.472231319332,12360.05501932226,7554.569759617961,-6218.148040085506,517.6698959753722,-4544.405475732548,-20156.53116272977,0.0
1397.1692439606768,9079.664882309859,12365.711767823223,7561.822306643405,-6209.347330312431,524.993896666091,-4539.749078545441,-20160.93747208841,0.0
1395.1566323887555,9079.355249760332,12365.235410054722,7562.548752240369,-6207.179902465747,524.9581698334533,-4542.476226770116,-20170.64326162164,0.0
1404.7076056472213,9072.186065344376,12357.66132153554,7556.332283361418,-6210.716858896874,521.5879386213015,-4552.95609767716,-20184.755360513514,0.0
1397.764691171304,9077.24736663471,12360.936281193992,7557.427906228973,-6212.908104631983,522.3262931624797,-4546.287088918132,-20179.18197462204,0.0
1377.614757563668,9072.972055662405,12358.340131355655,7552.70005537659,-6220.101106936365,515.0975640254612,-4545.310555492702,-20174.35885221596,0.0
1390.9527750817251,9069.268374012303,12356.470427114284,7552.831053762929,-6218.755396240346,514.895111973848,-4544.17920579251,-20165.43905300076,0.0
1393.7751948600996,9071.888341739063,12359.48339000006,7556.463281747757,-6213.7417307268615,519.2180587230039,-4543.845755354559,-20159.270219898655,0.0
1401.9804574225473,9076.354195818769,12363.627702586025,7562.108121304505,-6207.346627684723,524.255542124913,-4542.202321053227,-20145.33675516997,0.0
1398.300593660869,9073.65086548252,12358.137679304042,7555.189024717013,-6214.813535705992,516.3480031677791,-4547.775706944701,-20147.897178175666,0.0
1387.0109145473707,9070.018637497693,12352.981106460007,7548.305654962159,-6221.256274524982,514.6212062569592,-4550.371856783037,-20151.17213783412,0.0
1387.511090204298,9074.532127354249,12359.495298944272,7555.677291429728,-6211.955389094979,525.2558934387672,-4540.570795696108,-20149.850245026526,0.0
1395.2280860540307,9077.390273965262,12363.615793641815,7560.178872342072,-6205.869918602366,531.2699102661054,-4537.950827969346,-20170.29790223948,0.0
1392.4056662756564,9071.87643279485,12357.113510101763,7553.343138364068,-6215.4804365818945,516.324185279354,-4546.775355630846,-20189.566573975382,0.0
1387.9159943075244,9072.400426340202,12357.077783269124,7552.4856943807645,-6216.671331003149,514.81174936436,-4545.34628232534,-20174.239762773832,0.0
1385.5699322976523,9067.791664929944,12353.517008949571,7549.389368885501,-6219.00548406881,512.4061426334248,-4551.253118654766,-20172.953596798874,0.0
1392.0364890050673,9075.627750221804,12361.103006412966,7557.22545417736,-6211.729119154941,518.6226115123764,-4547.63279961415,-20177.026455719566,0.0
1397.526512287053,9072.436153172841,12356.256066118458,7552.759600097653,-6216.742784668425,513.144497174603,-4546.167999476006,-20161.735371350653,0.0
1411.3647054620371,9072.829148331855,12356.434700281647,7552.640510655528,-6215.8972496293345,519.2656944998541,-4540.904246134059,-20136.119232349458,0.0
1405.7675016821383,9086.976974056364,12371.297062658909,7567.062242096927,-6201.832786514311,532.6751656831864,-4527.256596066476,-20131.736740879238,0.0
1381.0088066642452,9079.807789640408,12364.675689676731,7561.881851364467,-6207.072721967834,522.8621956520445,-4538.046099523047,-20154.44709749257,0.0
1387.0347324357958,9073.758045980432,12360.245562429662,7557.666085113224,-6210.943128836912,518.0390732459614,-4546.203726308644,-20160.306298045147,0.0
1387.7016333116987,9072.48378894969,12359.828749382223,7557.701811945862,-6209.001970930267,521.921389059253,-4543.631394358734,-20168.02329389488,0.0
1390.7026872532615,9071.900250683275,12360.066928266473,7557.761356666925,-6208.585157882828,522.7192883214938,-4546.084636866519,-20173.01314151994,0.0
1389.5832464972818,9071.233349807371,12358.69739968203,7557.451724117398,-6209.490237642982,519.5515091609553,-4545.274828660065,-20181.778124460376,0.0
1395.168541332968,9078.200082171716,12364.723325453582,7563.3942872794605,-6202.225781673325,528.6975783161944,-4534.616323589832,-20174.823301040247,0.0
1386.5702836115065,9069.363645566002,12355.636801019406,7552.402331771277,-6213.694094950012,518.1343447996618,-4547.049261347735,-20169.869180247824,0.0
1384.48621837431,9070.14963588403,12356.708605998536,7554.605486450599,-6211.907753318129,519.9921400968198,-4542.976402427043,-20146.718192698627,0.0
1395.3471754961563,9074.389220023699,12360.55519497919,7560.024056067309,-6205.643648662327,524.3984494554635,-4538.701091454737,-20131.808194544512,0.0
1387.7849959211867,9067.434396603569,12354.172000881263,7553.271684698792,-6212.741379413008,521.2783060717752,-4541.19006079516,-20147.20645941134,0.0
1391.512495459715,9068.017934869984,12354.410179765513,7553.235957866155,-6213.301099790998,521.9452069476781,-4539.260811832727,-20159.567943503967,0.0
1394.7517282855288,9071.435801858986,12357.637503647113,7555.998832923467,-6210.049958020971,524.3865405112509,-4535.509494405774,-20165.248509893354,0.0
1392.9296598210085,9076.687646256722,12362.448717108984,7561.441220428603,-6204.690933125323,527.2446871222631,-4534.151874765542,-20161.806825015927,0.0
1392.548573606207,9069.697096003953,12354.934173310865,7553.962403463121,-6211.502849214903,523.4695518068845,-4543.393215474482,-20165.629596108156,0.0
1396.7762488016624,9072.305154786502,12357.446960539713,7554.391125454773,-6212.789015189858,524.4699031207389,-4537.260109205019,-20168.285290667554,0.0
1390.0596042657837,9068.911105685926,12354.969900143502,7551.723521951161,-6215.397073972406,518.6583383450139,-4540.987608743547,-20168.892646822394,0.0
1384.462400485885,9068.970650406987,12355.160443250903,7552.247515496513,-6215.432800805044,516.324185279354,-4547.061170291948,-20169.881089192037,0.0
1389.2497960593305,9075.437207114403,12359.673933107459,7557.928081885901,-6209.776052304083,522.9217403731072,-4536.890931934429,-20160.306298045147,0.0
1392.358030498806,9067.529668157269,12351.385307935525,7550.770806414157,-6214.765899929142,519.7658701567813,-4538.284278407297,-20154.506642213637,0.0
1401.3611923234944,9068.56574630376,12352.826290185243,7552.70005537659,-6211.336123995927,524.2674510691254,-4536.47411888699,-20144.87230634568,0.0
1402.3734525815614,9074.365402135274,12358.185315080891,7557.034911069959,-6208.704247324953,523.2551908110586,-4536.56939044069,-20142.466699614746,0.0
1408.9710076753145,9082.499211032446,12366.831208579202,7564.216004430126,-6202.011420677499,530.1623784543381,-4529.435932857372,-20141.192442584004,0.0
1382.9499645708909,9071.185714030524,12356.017887234206,7554.021948184183,-6211.0264914464005,523.1480103131457,-4537.569741754545,-20159.40121828499,0.0
1388.618622016065,9071.209531918947,12357.649412591325,7557.499359894248,-6207.132266688896,527.6019554486396,-4532.627529906335,-20167.356393018978,0.0
1390.0834221542088,9068.994468295414,12355.874979903656,7555.462930433902,-6210.27622796101,522.1952947761416,-4535.604765959473,-20180.82540892337,0.0
1392.4294841640813,9073.174507714019,12359.947838824348,7558.594982761803,-6206.810725195158,527.2327781780506,-4534.652050422469,-20170.786168952192,0.0
1396.9906097974883,9075.865929106056,12361.805634121507,7560.845773217975,-6203.535765536706,531.5557249272066,-4532.115445305196,-20150.636235344555,0.0
1396.1093479257595,9068.93492357435,12354.54117815185,7554.152946570522,-6209.335421368219,525.3749828808926,-4537.534014921906,-20148.992801043223,0.0
1401.0396508297558,9075.580114444952,12360.424196592852,7560.369415449473,-6202.011420677499,532.5560762410609,-4527.828225388678,-20142.96687527167,0.0
1391.8935816745166,9070.375905824068,12354.600722872912,7552.807235874503,-6212.920013576196,522.9574672057449,-4535.080772414121,-20145.777386105834,0.0
1389.0592529519297,9067.422487659356,12351.159037995485,7549.484640439202,-6215.837704908272,519.9325953757569,-4541.523511233112,-20154.840092651586,0.0
1389.2378871151177,9071.566800245324,12354.886537534014,7554.403034398985,-6210.27622796101,522.1000232224412,-4540.916155078271,-20168.297199611767,0.0
1393.5727428084863,9075.306208728065,12358.768853347307,7558.118624993301,-6206.667817864607,525.1248950524291,-4532.734710404249,-20169.833453415187,0.0
1389.9047879910206,9068.339476363722,12352.183207197764,7551.568705676398,-6214.1942706069385,518.1343447996618,-4538.641546733675,-20180.503867429634,0.0
1388.9758903424417,9066.350682680228,12350.05150618372,7549.032100559125,-6218.052768531806,515.5143770729006,-4540.606522528745,-20178.800888407237,0.0
1396.895338243788,9072.543333670754,12355.743981517318,7554.0338571283955,-6211.181307721165,523.3147355321214,-4537.379198647144,-20157.733966095235,0.0
1393.5370159758488,9071.650162854812,12355.684436796257,7553.77186035572,-6209.954686467271,524.1007258501497,-4534.461507315068,-20162.28318278443,0.0
1388.5948041276401,9068.077479591046,12351.933119369301,7549.115463168612,-6216.230700067285,517.3721723700586,-4542.273774718502,-20157.805419760512,0.0
1397.693237506029,9070.51881315462,12352.945379627368,7550.866077967858,-6213.920364890051,520.0755027063075,-4540.261163146581,-20148.921347377945,0.0
1400.289387344365,9077.556999184237,12358.745035458882,7557.332634675272,-6206.894087804646,526.4706057484474,-4530.3291036733135,-20143.764774533913,0.0
1393.155929761047,9071.554891301112,12353.112104846345,7552.723873265016,-6210.562042622111,520.1112295389452,-4537.617377531395,-20151.529406160495,0.0
1391.1314092449134,9065.576601306411,12347.693535229633,7550.080087649829,-6212.5746541940325,516.7886341036435,-4541.821234838425,-20158.246050696376,0.0
1389.8452432699578,9066.386409512863,12348.110348277072,7550.985167409983,-6210.597769454749,518.765518842927,-4538.820180896862,-20167.22539463264,0.0
1393.3583818126604,9068.64910891325,12350.56359078486,7551.9497918912,-6208.906699376566,521.8856622266153,-4534.425780482431,-20171.453069828094,0.0
1393.4179265337232,9068.923014630136,12353.409828451659,7550.234903924593,-6213.598823396312,518.8488814524147,-4532.806164069524,-20172.310513811397,0.0
1393.4179265337232,9064.07607433563,12349.634693136279,7548.651014344324,-6213.813184392137,518.4439773491881,-4538.331914184148,-20168.237654890705,0.0
1393.632287529549,9061.610922883632,12346.871818078967,7545.876230342798,-6216.897600943188,515.716829124514,-4545.632096986442,-20161.92591445805,0.0
1397.6813285618161,9068.256113754236,12352.611929189417,7550.544536474119,-6212.443655807694,518.0271643017488,-4544.214932625147,-20148.290173334684,0.0
1402.4806330794743,9064.230890610392,12349.015428037226,7548.770103786449,-6212.229294811868,518.5630667913135,-4543.94102690826,-20139.346556231056,0.0
1398.9317677041342,9064.611976825194,12349.53942158258,7548.972555838062,-6211.991115927617,520.8614930243359,-4540.77324774772,-20132.14164498246,0.0
1404.7552414240715,9070.816536759934,12355.89879779208,7555.081844219101,-6206.036643821341,525.470254434593,-4531.9129932535825,-20147.39700251874,0.0
1407.8634758635471,9072.007431181188,12356.768150719598,7555.308114159139,-6207.572897624761,523.1003745362955,-4533.342066559089,-20163.235898321433,0.0
1394.906544560292,9073.662774426732,12358.518765518844,7556.820550074132,-6206.965541469921,526.3991520831721,-4533.091978730626,-20171.774611321835,0.0
1383.1762345109294,9067.779755985732,12351.4567616008,7551.116165796321,-6211.145580888526,521.5403028444514,-4541.761690117362,-20175.87128813095,0.0
1389.7856985488952,9071.209531918947,12354.81508386874,7555.224751549651,-6206.155733263467,523.5529144163725,-4532.877617734799,-20178.872342072515,0.0
1399.574850691612,9067.696393376245,12352.11175353249,7551.699704062737,-6210.08568485361,520.408953144259,-4537.474470200844,-20177.00263783114,0.0
1398.1100505534682,9062.480275811147,12347.07427013058,7547.793570361019,-6213.2177371815105,517.4198081469087,-4544.465020453611,-20169.89299813625,0.0
1403.0760802901018,9071.149987197885,12354.886537534014,7555.677291429728,-6204.762386790599,525.101077164004,-4534.354326817156,-20148.84989371267,0.0
1391.012319802788,9065.004971984208,12347.86026044861,7547.495846755706,-6214.765899929142,516.8124519920686,-4541.559238065749,-20146.563376423863,0.0
1398.8364961504337,9062.718454695398,12345.538016327162,7544.816334307882,-6217.469230265391,513.0968613977528,-4545.989365312818,-20137.417307268624,0.0
1396.2760731447354,9064.004620670354,12347.324357959043,7546.388314943938,-6215.623343912445,516.086006395103,-4541.368694958348,-20128.58087066291,0.0
1397.6813285618161,9068.399021084786,12351.933119369301,7550.568354362544,-6212.229294811868,519.4205107746174,-4537.534014921906,-20150.660053232983,0.0
1393.26311025896,9065.755235469598,12349.789509411043,7546.924217433503,-6216.6475131147245,515.7287380687264,-4543.166945534444,-20169.785817638338,0.0
1383.450140227818,9062.980451468075,12348.122257221285,7546.126318171262,-6216.671331003149,517.2888097605706,-4544.429293620974,-20175.585473469848,0.0
1391.0004108585754,9068.589564192187,12353.397919507446,7552.74769115344,-6208.513704217552,524.148361627,-4535.914398509,-20170.190721741565,0.0
1395.08517872348,9069.887639111355,12353.04065118107,7552.938234260841,-6208.823336767079,521.2425792391375,-4539.105995557964,-20166.094044932444,0.0
1391.4767686270773,9066.60077050869,12350.063415127932,7548.770103786449,-6212.908104631983,515.8121006782144,-4547.561345948875,-20166.07022704402,0.0
1393.26311025896,9065.207424035823,12347.884078337034,7547.472028867281,-6214.599174710166,516.4432747214795,-4545.727368540142,-20156.95988472142,0.0
1396.0378942604843,9066.55313473184,12348.646250766638,7547.924568747358,-6215.0636235344555,515.9073722319148,-4541.392512846774,-20149.30243359275,0.0
1402.9093550711261,9071.447710803199,12354.172000881263,7553.652770913594,-6208.489886329127,522.4334736603926,-4533.115796619051,-20138.98928790468,0.0
1409.4235475553915,9072.186065344376,12355.386713190941,7554.0338571283955,-6207.62053340161,522.8026509309817,-4534.270964207668,-20143.419415151748,0.0
1393.2154744821098,9065.910051744362,12348.69388654349,7546.531222274489,-6214.063272220601,516.2765495025038,-4545.90600270333,-20165.12942045123,0.0
1386.2487421177675,9065.481329752709,12346.812273357904,7544.911605861582,-6215.718615466145,516.3718210562042,-4542.3690462722025,-20173.989674945366,0.0
1392.334212610381,9068.339476363722,12346.812273357904,7544.804425363669,-6217.79077175913,511.19143032374467,-4542.857312984917,-20175.406839306663,0.0
1398.9317677041342,9071.292894528435,12350.01577935108,7549.282188387589,-6212.086387481318,517.9318927480484,-4540.546977807682,-20175.287749864536,0.0
1394.8112730065916,9071.257167695798,12351.659213652412,7552.842962707141,-6207.513352903698,522.528745214093,-4536.676570938604,-20162.56899744553,0.0
1396.0974389815472,9061.110747226705,12342.667960771938,7543.494441500289,-6218.326674248694,510.21489689831543,-4547.02544345931,-20158.44850274799,0.0
1410.0547215986567,9069.256465068089,12352.492839747292,7552.688146432378,-6208.894790432354,520.8734019685485,-4537.069566097618,-20150.624326400342,0.0
1408.9710076753145,9076.616192591446,12361.007734859266,7561.417402540177,-6200.117898547704,529.7217475184736,-4530.305285784889,-20132.439368587777,0.0
1396.418980475286,9067.458214491993,12351.861665704027,7550.651716972032,-6211.836299652854,519.3609660535545,-4536.950476655492,-20139.894367664834,0.0
1395.59726332462,9067.744029153097,12353.004924348432,7553.25977575458,-6208.084982225901,524.1959974038501,-4534.1399658213295,-20155.590356136974,0.0
1399.491488082124,9069.804276501867,12355.648709963618,7553.831405076782,-6207.549079736336,523.1480103131457,-4534.878320362508,-20158.007871812126,0.0
1403.9811600502558,9071.888341739063,12356.613334444834,7554.42685228741,-6206.572546310907,522.3620199951173,-4537.807920638796,-20162.52136166868,0.0
1403.7191632775796,9070.804627815722,12353.862368331735,7552.831053762929,-6207.62053340161,523.3266444763339,-4540.48743308662,-20168.32101750019,0.0
1398.0028700555551,9066.279229014952,12348.431889770813,7547.876932970507,-6213.003376185684,518.3725236839127,-4542.023686890039,-20172.858325245175,0.0
1398.431592047207,9067.148581942467,12348.360436105537,7547.912659803144,-6212.265021644506,518.0986179670242,-4542.857312984917,-20163.926617085763,0.0
1397.848053780792,9071.602527077961,12353.23119428847,7552.616692767102,-6206.572546310907,522.659743600431,-4537.141019762892,-20162.52136166868,0.0
1395.3590844403689,9066.076776963338,12348.777249152976,7548.317563906372,-6210.538224733687,520.1588653157954,-4538.129462132534,-20149.802609249677,0.0
1397.8956895576423,9065.064516705272,12348.872520706676,7549.139281057038,-6209.823688080933,522.3382021066922,-4533.961331658142,-20148.194901780982,0.0
1400.765745112867,9063.135267742839,12346.764637581055,7546.316861278663,-6213.944182778476,518.3725236839127,-4538.355732072573,-20157.995962867913,0.0
1405.2315991925734,9064.421433717795,12348.4199808266,7547.591118309406,-6212.265021644506,518.5630667913135,-4541.19006079516,-20158.948678404915,0.0
1401.0634687181807,9059.907943861237,12343.120500652014,7542.505999130647,-6216.849965166339,511.632061259609,-4548.430698876391,-20170.190721741565,0.0
1408.6851930142134,9069.697096003953,12352.183207197764,7551.675886174311,-6208.35888794279,520.0755027063075,-4538.701091454737,-20165.736776606067,0.0
1400.9562882202679,9073.889044366771,12356.649061277472,7555.593928820241,-6203.631037090407,525.92279431467,-4531.067458214492,-20171.72697554498,0.0
1393.4655623105732,9071.245258751585,12353.695643112758,7553.307411531431,-6205.09583722855,523.5052786395222,-4536.081123727976,-20168.71401265921,0.0
1395.704443822533,9070.018637497693,12352.564293412566,7552.211788663876,-6206.751180474095,522.5882899351558,-4536.188304225889,-20171.691248712345,0.0
1397.133517128039,9069.280282956515,12351.87357464824,7552.259424440726,-6205.798464937091,523.3742802531841,-4539.522808605403,-20164.212431746862,0.0
1393.1321118726219,9067.041401444554,12349.575148415217,7549.341733108651,-6210.240501128372,516.9315414341942,-4544.5245651746745,-20147.408911462953,0.0
1400.1702979022393,9071.185714030524,12353.636098391697,7552.711964320803,-6210.026140132547,519.6348717704432,-4537.260109205019,-20144.288768079266,0.0
1404.5885162050959,9074.937031457475,12356.339428727946,7556.463281747757,-6205.012474619062,525.1368039966417,-4529.769383295324,-20146.432378037523,0.0
1408.828100344764,9073.46032237512,12354.86271964559,7555.713018262366,-6205.762738104453,522.5168362698805,-4531.936811142008,-20148.218719669407,0.0
1395.4186291614315,9064.504796327281,12346.32400664519,7546.578858051339,-6215.027896701818,512.6562304618884,-4545.20337499479,-20164.522064296387,0.0
1392.1436695029802,9071.74543440851,12352.778654408394,7552.128426054388,-6209.57360025247,518.1462537438744,-4537.557832810332,-20163.30735198671,0.0
1402.6830851310876,9075.127574564876,12357.304053209162,7555.224751549651,-6204.655206292686,522.2786573856295,-4535.926307453212,-20160.854109478925,0.0
1398.7531335409458,9071.245258751585,12354.5888139287,7553.390774140918,-6205.881827546579,521.5998475655141,-4537.9151011367085,-20166.463222203038,0.0
1392.4652109967192,9072.162247455952,12354.67217653819,7553.366956252494,-6206.26291376138,523.9578185195992,-4534.69968619932,-20177.288452492245,0.0
1391.3338612965267,9069.482735008127,12352.766745464181,7551.604432509035,-6206.417730036143,524.3150868459757,-4537.819829583009,-20184.88635889985,0.0
1391.0480466354256,9064.921609374722,12347.383902680107,7546.388314943938,-6212.729470468795,514.7045688664472,-4546.668175132933,-20171.977063373444,0.0
1397.8123269481544,9071.697798631663,12353.659916280123,7553.8075871883575,-6205.679375494966,522.8026509309817,-4540.034893206543,-20150.588599567705,0.0
1401.6708248730208,9071.388166082135,12353.016833292644,7553.21213997773,-6206.358185315081,520.4208620884715,-4537.629286475608,-20148.14726600413,0.0
1402.7307209079377,9072.043158013827,12352.647656022056,7551.568705676398,-6210.300045849434,514.9903835275484,-4540.368343644494,-20155.042544703196,0.0
1407.31566442977,9075.151392453303,12355.803526238382,7555.474839378116,-6204.44084529686,521.0639450759493,-4534.949774027784,-20156.76934161402,0.0
1398.514954656695,9071.578709189538,12353.08828695792,7553.378865196705,-6204.81002256745,519.7420522683561,-4538.141371076747,-20174.13258227592,0.0
1401.2897386582192,9070.637902596745,12352.171298253552,7551.890247170137,-6206.894087804646,519.349057109342,-4539.403719163278,-20181.218404082385,0.0
1405.6603211842255,9071.614436022173,12352.600020245205,7552.4142407154895,-6207.9301659511375,520.1826832042206,-4536.605117273328,-20177.383724045943,0.0
1402.063820032035,9069.387463454428,12350.980403832298,7550.473082808843,-6210.466771068411,517.5150797006091,-4540.987608743547,-20169.57145664251,0.0
1407.1370302665816,9069.887639111355,12350.635044450133,7551.211437350021,-6208.680429436528,520.4327710326842,-4534.2947820960935,-20157.51960509941,0.0
1410.733531418772,9075.020394066965,12355.89879779208,7556.20128497508,-6202.61877683234,528.1140400497793,-4528.685669371982,-20145.777386105834,0.0
1400.2298426233021,9070.483086321981,12351.206673772336,7551.139983684747,-6207.882530174287,520.5280425863846,-4537.295836037656,-20152.315396478523,0.0
1401.3850102119197,9070.971353034696,12351.385307935525,7551.413889401635,-6208.513704217552,517.943801692261,-4536.069214783763,-20142.764423220062,0.0
1412.853323488606,9074.424946856336,12355.541529465705,7555.820198760279,-6204.012123305208,523.0884655920829,-4533.818424327592,-20138.10802603295,0.0
1405.0648739735977,9067.053310388766,12347.991258834947,7548.698650121173,-6210.9907646137635,516.8839056573439,-4541.380603902561,-20150.457601181366,0.0
1401.396919156132,9067.041401444554,12348.670068655063,7550.080087649829,-6208.978153041841,515.0737461370362,-4544.119661071448,-20172.584419528288,0.0
1405.5055049094622,9074.436855800548,12356.291792951095,7557.082546846809,-6201.713697072186,524.0292721848745,-4537.152928707105,-20164.99842206489,0.0
1393.8704664138002,9070.399723712495,12351.754485206115,7552.033154500688,-6207.846803341649,518.9084261734776,-4539.522808605403,-20161.783007127502,0.0
1396.6928861921745,9069.232647179664,12349.860963076317,7551.1280747405335,-6208.346978998577,518.5987936239512,-4538.736818287374,-20173.370409846317,0.0
1399.2414002536605,9071.233349807371,12351.4567616008,7553.247866810368,-6204.524207906348,523.136101368933,-4537.522105977694,-20169.7500908057,0.0
1400.3727499538527,9071.376257137923,12351.790212038752,7554.4506701758355,-6203.369040317731,526.1490642547085,-4538.582002012612,-20154.48282432521,0.0
1404.8147861451343,9074.865577792201,12356.422791337434,7558.821252701841,-6198.176740641058,531.8653574767328,-4530.007562179575,-20136.714679560082,0.0
1400.2774784001524,9068.577655247973,12348.824884929827,7550.342084422506,-6207.370445573147,520.6352230842974,-4534.925956139358,-20141.942706069392,0.0
1403.552438058604,9070.00672855348,12350.420683454307,7553.736133523083,-6201.45170029951,528.0902221613543,-4533.72315277389,-20153.45865512293,0.0
1405.9461358453266,9069.899548055568,12350.980403832298,7554.176764458947,-6200.903888865732,529.316843415247,-4532.698983571611,-20151.767585044745,0.0
1408.6018304047254,9067.100946165618,12348.00316777916,7548.234201296884,-6213.122465627809,514.680750978022,-4537.736466973521,-20165.12942045123,0.0
1400.8848345549925,9070.93562620206,12351.718758373476,7552.616692767102,-6206.655908920395,520.1707742600079,-4533.520700722277,-20168.142383337006,0.0
1397.0739724069763,9067.81548281837,12349.02733698144,7549.782364044516,-6209.168696149242,517.384081314271,-4535.295133409947,-20164.605426905877,0.0
1406.4820383348913,9069.411281342853,12351.6473047082,7551.723521951161,-6206.929814637283,519.8492327662691,-4535.330860242585,-20166.7133100315,0.0
1414.6515740647012,9066.541225787627,12348.598614989787,7549.306006276013,-6209.430692921919,518.6583383450139,-4537.319653926082,-20161.44955668955,0.0
1402.0280931993975,9063.70689706504,12345.335564275549,7545.638051458548,-6212.372202142419,516.8362698804938,-4538.331914184148,-20151.529406160495,0.0
1398.8960408714966,9072.817239387641,12353.636098391697,7553.283593643006,-6203.095134600841,525.6131617651437,-4530.483919948077,-20143.598049314936,0.0
1398.0385968881928,9072.459971061266,12354.612631817126,7554.855574279062,-6201.677970239549,525.553617044081,-4531.85344853252,-20139.45373672897,0.0
1403.0165355690392,9069.68518705974,12351.087584330211,7551.973609779624,-6204.262211133671,523.3266444763339,-4535.295133409947,-20141.918888180968,0.0
1409.69745327228,9073.114962992957,12353.862368331735,7554.736484836936,-6200.999160419433,525.6607975419939,-4534.223328430818,-20143.812410310766,0.0
1404.8862398104095,9071.78116124115,12352.71910968733,7553.593226192532,-6203.559583425131,523.7434575237733,-4542.035595834252,-20157.138518884607,0.0
1398.800769317796,9066.314955847589,12347.58635473172,7547.448210978855,-6212.134023258168,513.144497174603,-4549.538230688158,-20168.142383337006,0.0
1402.4210883584115,9073.996224864684,12356.041705122632,7556.439463859331,-6201.427882411085,525.31543815983,-4532.198807914684,-20163.474077205683,0.0
1395.8235332646584,9067.39866977093,12348.241346663412,7548.508107013773,-6209.823688080933,519.48005549568,-4535.842944843725,-20168.40438010968,0.0
1403.3023502301403,9073.007782495042,12352.885834906307,7553.795678244145,-6203.916851751508,524.6366283397145,-4530.876915107091,-20159.460763006056,0.0
1403.838252719705,9073.46032237512,12353.124013790557,7556.117922365592,-6200.356077431955,526.3515163063217,-4528.697578316194,-20139.763369278495,0.0
1405.0648739735977,9073.055418271893,12353.719461001185,7556.344192305631,-6200.296532710892,526.7564204095486,-4527.018417182225,-20129.640766697827,0.0
1406.231950506428,9069.256465068089,12350.063415127932,7552.962052149266,-6204.178848524183,525.3511649924676,-4529.721747518473,-20140.870901090264,0.0
1401.5874622635329,9067.601121822545,12347.776897839121,7548.293746017946,-6207.9301659511375,523.3147355321214,-4531.75817697882,-20143.93149975289,0.0
1403.3499860069905,9072.686241001304,12352.647656022056,7554.617395394811,-6200.23698798983,529.0310287541457,-4532.82998195795,-20146.944462638665,0.0
1407.2323018202821,9073.841408589922,12355.458166856219,7557.308816786848,-6198.569735800072,530.2100142311883,-4534.306691040306,-20151.767585044745,0.0
1405.719865905288,9069.470826063915,12351.051857497572,7551.592523564823,-6205.226835614888,523.4814607510971,-4533.211068172751,-20170.619443733212,0.0
1404.0645226597437,9073.103054048745,12354.648358649763,7553.283593643006,-6203.130861433479,524.8390803913278,-4527.863952221316,-20176.621551616343,0.0
1400.0273905716888,9076.44946737247,12357.685139423964,7556.8681858509835,-6199.581996058139,527.1613245127753,-4528.816667758319,-20160.31820698936,0.0
1403.2904412859277,9079.772062807771,12359.673933107459,7560.059782899947,-6196.890574666103,528.3403099898179,-4525.756069095694,-20146.146563376424,0.0
1397.0501545185512,9074.72267046165,12354.16009193705,7555.40338571284,-6200.915797809946,524.6366283397145,-4532.496531519998,-20145.741659273197,0.0
1400.3012962885775,9068.32756741951,12348.670068655063,7551.330526792148,-6205.0482014517,521.4212134023257,-4539.41562810749,-20152.30348753431,0.0
1411.9363347842398,9069.840003334504,12350.980403832298,7552.283242329151,-6204.369391631584,520.5280425863846,-4539.41562810749,-20147.146914690275,0.0
1418.6053435432682,9074.389220023699,12354.791265980315,7556.475190691969,-6198.986548847512,525.6727064862065,-4532.853799846374,-20138.60820168988,0.0
1408.5422856836628,9075.818293329205,12356.113158787906,7555.40338571284,-6201.177794582622,526.7683293537611,-4531.031731381854,-20155.97144235178,0.0
1388.8925277329538,9073.103054048745,12354.374452932874,7553.283593643006,-6203.27376876403,525.8989764262449,-4532.1749900262585,-20166.665674254647,0.0
1392.5962093830572,9073.412686598269,12354.44590659815,7555.165206828588,-6200.177443268766,528.3284010456052,-4531.817721699883,-20170.14308596471,0.0
1397.0501545185512,9075.592023389167,12356.553789723772,7557.237363121572,-6200.320350599318,526.2086089757712,-4530.841188274453,-20181.230313026597,0.0
1396.9906097974883,9070.697447317809,12351.194764828124,7551.354344680572,-6206.12000643083,522.0762053340161,-4536.640844105966,-20177.431359822796,0.0
1403.8144348312799,9072.412335284414,12352.862017017882,7552.46187649234,-6204.214575356822,523.9816364080242,-4537.736466973521,-20162.461816947616,0.0
1408.3874694088995,9070.209180605092,12350.646953394345,7551.663977230098,-6204.845749400087,526.1967000315587,-4534.628232534044,-20157.841146593146,0.0
1411.3170696851869,9078.021448008527,12357.923318308214,7558.4520754312525,-6197.378841378817,530.3529215617389,-4526.006156924158,-20143.883863976036,0.0
1401.7780053709337,9075.258572951216,12355.481984744642,7555.486748322327,-6200.629983148844,524.1602705712125,-4534.771139864595,-20141.40680357983,0.0
1407.6729327561463,9074.81794201535,12354.95799119929,7554.724575892724,-6201.654152351123,524.8152625029028,-4534.723504087745,-20147.516091960868,0.0
1405.5412317420999,9074.317766358423,12354.791265980315,7554.593577506385,-6201.070614084708,525.7084333188441,-4533.091978730626,-20151.053048391994,0.0
1399.0032213694094,9072.007431181188,12352.95728857158,7553.307411531431,-6202.499687390215,521.4212134023257,-4536.557481496478,-20162.604724278168,0.0
1403.9335242734055,9072.0193401254,12352.862017017882,7552.65241959974,-6203.535765536706,520.9448556338237,-4534.735413031957,-20169.071280985583,0.0
1401.265920769794,9073.079236160318,12351.825938871389,7551.783066672224,-6205.036292507488,521.5522117886638,-4533.937513769717,-20170.071632299438,0.0
1401.0753776623933,9074.794124126925,12352.981106460007,7552.783417986078,-6203.642946034619,521.7189370076395,-4534.652050422469,-20169.9406339131,0.0
1407.2680286529198,9076.866280419908,12357.351688986013,7556.653824855157,-6200.665709981482,526.2205179199838,-4530.031380068,-20171.57215927022,0.0
1401.849459036209,9073.710410203583,12355.42244002358,7553.783769299933,-6203.297586652455,523.4814607510971,-4534.5925057014065,-20160.580203762034,0.0
1400.6466556707414,9071.018988811547,12352.123662476703,7550.937531633133,-6206.358185315081,520.3017726463461,-4539.915803764417,-20155.911897630715,0.0
1407.2323018202821,9072.972055662405,12352.778654408394,7551.675886174311,-6205.381651889652,519.8611417104817,-4535.283224465736,-20148.48071644208,0.0
1409.3401849459037,9072.412335284414,12348.670068655063,7547.555391476769,-6209.406875033494,515.9788258971901,-4541.249605516223,-20152.577393251202,0.0
1413.282045480258,9075.996927492393,12351.575851042926,7551.282891015297,-6204.250302189459,521.0639450759493,-4537.534014921906,-20154.566186934695,0.0
1410.4834435903085,9077.533181295812,12356.196521397396,7557.725629834286,-6197.140662494567,526.8874187958866,-4534.1042389886925,-20154.48282432521,0.0
1402.7902656290007,9071.411983970562,12353.08828695792,7554.629304339024,-6198.617371576923,525.6131617651437,-4533.877969048654,-20163.736073978358,0.0
1404.6480609261585,9072.924419885554,12355.279532693028,7554.724575892724,-6199.367635062314,526.029974812583,-4531.972537974645,-20171.143437278566,0.0
1409.69745327228,9072.305154786502,12354.67217653819,7552.46187649234,-6204.000214360995,520.3732263116214,-4535.271315521522,-20163.581257703598,0.0
1412.9247771538815,9073.69850125937,12355.112807474052,7554.152946570522,-6201.666061295336,522.743106209919,-4537.295836037656,-20147.75427084512,0.0
1409.6021817185797,9075.210937174365,12355.958342513144,7555.605837764452,-6197.867108091533,530.460102059652,-4531.9129932535825,-20141.966523957817,0.0
1404.3860641534825,9073.46032237512,12354.291090323388,7554.164855514734,-6197.974288589445,529.6622027974109,-4528.185493715055,-20151.565132993135,0.0
1407.0298497686688,9071.673980743237,12352.20702508619,7551.687795118523,-6203.392858206155,523.5767323047975,-4529.054846642571,-20147.039734192364,0.0
1405.0529650293854,9069.16119351439,12349.015428037226,7547.781661416807,-6208.692338380741,519.4205107746174,-4532.82998195795,-20154.804365818945,0.0
1404.37415520927,9070.911808313635,12351.849756759815,7550.854169023645,-6203.83348914202,524.3746315670385,-4529.293025526822,-20158.59141007854,0.0
1403.361894951203,9069.44700817549,12350.01577935108,7550.080087649829,-6202.225781673325,525.1487129408541,-4533.103887674838,-20171.083892557508,0.0
1404.0407047713184,9067.970299093135,12347.526810010659,7549.091645280188,-6202.166236952263,524.3984494554635,-4539.737169601229,-20178.955704682,0.0
1407.1132123781565,9070.828445704145,12350.361138733246,7550.949440577346,-6202.225781673325,523.6839128027104,-4537.867465359858,-20179.56306083684,0.0
1408.8757361216142,9070.161544828243,12350.09914196057,7549.984816096129,-6205.072019340125,519.0870603366658,-4537.629286475608,-20175.46638402772,0.0
1406.6606724980797,9068.923014630136,12348.146075109711,7548.603378567473,-6206.429638980356,516.5266373309674,-4541.559238065749,-20165.403326168118,0.0
1407.6729327561463,9069.44700817549,12348.431889770813,7549.71091037924,-6205.024383563275,521.7427548960646,-4535.6524017363245,-20158.1745970311,0.0
1412.3174209990414,9070.79271887151,12350.301594012182,7550.246812868805,-6204.035941193633,525.2201666061296,-4535.164135023609,-20150.433783292945,0.0
1410.5548972555837,9068.42283897321,12348.205619830773,7546.912308489291,-6207.38235451736,520.9924914106739,-4543.393215474482,-20148.671259549483,0.0
1413.2344097034077,9068.768198355376,12349.479876861516,7547.102851596692,-6206.77499836252,520.4565889211092,-4533.877969048654,-20146.46810487016,0.0
1412.2221494453408,9065.921960688574,12347.229086405345,7544.232796041467,-6211.53857604754,511.26288398901994,-4538.510548347336,-20152.005763928995,0.0
1412.2936031106162,9074.710761517437,12356.339428727946,7553.617044080957,-6200.939615698369,523.1480103131457,-4532.198807914684,-20153.69683400718,0.0
1411.6981558999887,9076.568556814595,12358.268677690377,7556.856276906771,-6197.116844606141,529.7812922395365,-4529.0072108657205,-20176.955002054292,0.0
1409.9118142681061,9074.079587474173,12354.005275662286,7552.783417986078,-6201.7017881279735,522.3620199951173,-4534.211419486605,-20183.81455392072,0.0
1410.7454403629845,9072.352790563353,12352.81438124103,7553.045414758754,-6199.200909843338,523.826820133261,-4533.639790164402,-20169.452367200385,0.0
1410.9598013588104,9070.066273274542,12350.313502956395,7550.556445418331,-6202.142419063837,525.4821633788057,-4532.687074627399,-20164.414883798476,0.0
1409.9237232123187,9071.17380508631,12351.718758373476,7551.5806146206105,-6202.082874342775,526.1490642547085,-4530.400557338588,-20156.03098707284,0.0
1407.7682043098469,9068.553837359548,12349.396514252028,7549.639456713965,-6202.190054840688,524.5770836186517,-4533.6516991086155,-20145.217665727843,0.0
1407.6252969792963,9064.635794713618,12345.3832000524,7545.79286773331,-6207.072721967834,516.7886341036435,-4538.129462132534,-20147.20645941134,0.0
1411.0074371356607,9063.456809236577,12343.70403891843,7543.661166719265,-6208.954335153418,517.1578113742327,-4539.0464508369005,-20140.323089656486,0.0
1416.1878278681204,9067.374851882507,12347.538718954871,7547.817388249445,-6204.786204679024,521.5283939002387,-4535.128408190972,-20151.362680941522,0.0
1409.2568223364158,9063.980802781929,12344.78775284177,7544.8996969173695,-6207.370445573147,518.6940651776516,-4539.41562810749,-20166.93957997154,0.0
1415.2470212753287,9066.029141186487,12346.097736705153,7545.471326239572,-6207.370445573147,517.2769008163582,-4539.475172828553,-20183.957461251273,0.0
1411.662429067351,9070.14963588403,12350.504046063796,7549.996725040341,-6204.786204679024,519.3728749977671,-4536.605117273328,-20183.528739259622,0.0
1402.194818418373,9068.780107299588,12350.444501342734,7550.532627529906,-6202.547323167064,521.9690248361031,-4538.15328002096,-20166.141680709297,0.0
1407.8634758635471,9070.494995266194,12352.611929189417,7552.271333384939,-6202.297235338601,521.2068524064998,-4536.366938389077,-20163.974252862612,0.0
1406.3153131159156,9065.755235469598,12347.81262467176,7547.888841914721,-6205.274471391738,520.7066767495727,-4537.724558029307,-20161.48528352219,0.0
1410.602533032434,9062.527911587998,12342.965684377252,7542.744178014897,-6209.7045986388075,518.896517229265,-4536.1406684490385,-20150.159877576054,0.0
1409.328276001691,9063.587807622915,12344.323304017482,7543.089537397062,-6210.943128836912,516.3956389446294,-4542.416682049053,-20145.956020269023,0.0
1403.2666233975026,9063.563989734488,12344.108943021656,7541.898642975807,-6212.943831464621,512.0726921954733,-4547.12071501301,-20159.413127229203,0.0
1409.3759117785412,9071.554891301112,12351.254309549187,7549.603729881327,-6204.917203065362,516.8362698804938,-4540.21352736973,-20161.711553462228,0.0
1408.2564710225615,9069.95909277663,12349.53942158258,7547.734025639957,-6205.8937364907915,517.5746244216718,-4538.236642630447,-20176.1094670152,0.0
1406.0056805663894,9071.26907664001,12348.991610148802,7547.817388249445,-6206.489183701418,520.2541368694958,-4537.045748209192,-20176.41909956473,0.0
1408.982916619527,9074.639307852163,12352.338023472528,7552.580965934465,-6201.296884024747,523.5529144163725,-4536.52175466384,-20169.964451801527,0.0
1411.3408875736122,9068.923014630136,12348.670068655063,7550.592172250968,-6203.118952489267,518.3606147397003,-4541.642600675237,-20163.926617085763,0.0
1409.5307280533045,9067.24385349617,12347.95553200231,7548.9011021727865,-6205.691284439178,515.8716453992771,-4536.700388827028,-20165.165147283868,0.0
1404.8386040335592,9064.45716055043,12344.859206507048,7544.470974925717,-6209.609327085107,513.6684907199552,-4542.857312984917,-20165.665322940797,0.0
1410.1261752639318,9063.885531228229,12344.382848738544,7542.636997516985,-6209.8951417462085,515.4548323518379,-4539.46326388434,-20161.54482824325,0.0
1410.4477167576708,9067.696393376245,12346.859909134755,7546.197771836538,-6206.751180474095,518.9679708945403,-4533.830333271803,-20152.66075586069,0.0
1402.0519110878224,9064.647703657833,12344.668663399645,7544.423339148868,-6207.906348062712,516.4075478888419,-4538.510548347336,-20151.017321559357,0.0
1410.1499931523572,9072.459971061266,12352.540475524142,7552.068881333325,-6199.558178169714,525.5893438767185,-4531.7224501461815,-20148.766531103185,0.0
1407.0536676570937,9073.412686598269,12353.255012176895,7552.842962707141,-6198.950822014875,525.1606218850668,-4529.828928016386,-20179.098612012553,0.0
1403.0165355690392,9069.470826063915,12349.718055745769,7548.782012730661,-6203.797762309382,519.0275156156031,-4535.533312294198,-20188.935399932117,0.0
1406.4820383348913,9073.853317534134,12354.029093550711,7553.8075871883575,-6199.141365122276,525.2439844945546,-4529.4954775784345,-20186.172524874804,0.0
1405.8627732358389,9073.019691439255,12352.528566579931,7553.581317248319,-6199.296181397038,524.6723551723521,-4531.817721699883,-20179.098612012553,0.0
1406.3153131159156,9074.532127354249,12354.624540761339,7555.617746708665,-6196.4142168976,526.0895195336457,-4534.937865083571,-20171.48879666073,0.0
1411.2456160199117,9075.663477054442,12355.291441637242,7555.7725629834285,-6194.604057377293,530.0194711237875,-4532.389351022085,-20160.127663881955,0.0
1417.8312621694524,9074.460673688975,12352.314205584104,7550.413538087781,-6203.857307030446,518.8131546197772,-4537.557832810332,-20152.684573749113,0.0
1417.9146247789402,9078.855074103405,12355.970251457358,7553.5455904156815,-6201.106340917346,517.6103512543095,-4538.046099523047,-20150.314693850814,0.0
1416.402188863946,9075.580114444952,12353.124013790557,7550.425447031994,-6204.941020953787,513.4184028914916,-4540.725611970871,-20162.664268999233,0.0
1415.2708391637539,9079.355249760332,12355.481984744642,7554.117219737884,-6202.070965398563,517.2649918721455,-4537.843647471433,-20163.962343918396,0.0
1411.7815185094764,9084.309370552754,12361.805634121507,7559.321428358769,-6195.628226579573,523.2313729226335,-4534.818775641445,-20168.39247116547,0.0
1407.6014790908712,9080.855776731114,12359.673933107459,7558.285350212276,-6195.068506201582,523.112283480508,-4536.235940002739,-20182.23066434045,0.0
1415.4732912153675,9085.488356029795,12366.604938639164,7564.894814250243,-6189.685663417509,527.7567717234028,-4531.079367158705,-20179.21770145468,0.0
1410.7216224745596,9086.619705729989,12367.569563120382,7566.919334766376,-6186.803698918072,529.8527459048119,-4534.163783709755,-20166.26077015142,0.0
1406.7440351075677,9083.964011170588,12365.18777427787,7564.251731262765,-6189.137851983733,530.2933768406763,-4532.698983571611,-20160.282480156722,0.0
1414.7349366741892,9084.357006329603,12364.461328680905,7562.929838455172,-6191.0551920019525,528.5308530972187,-4531.067458214492,-20153.17284046183,0.0
1415.1160228889908,9081.558404439653,12360.757647030801,7560.012147123096,-6193.794249170839,527.4590481180891,-4532.889526679012,-20149.18334415062,0.0
1407.8515669193348,9079.807789640408,12358.864124901007,7559.3928820240435,-6194.044336999304,526.9231456285244,-4532.889526679012,-20151.195955722545,0.0
1408.8161914005511,9076.628101535658,12356.220339285821,7557.46363306161,-6194.222971162491,526.7206935769109,-4536.831387213366,-20157.936418146848,0.0
1408.8042824563388,9073.055418271893,12353.576553670633,7555.40338571284,-6196.664304726064,525.4345276019554,-4535.140317135185,-20152.62502902805,0.0
1406.8154887728429,9074.91321356905,12354.850810701377,7556.475190691969,-6196.17603801335,526.6016041347854,-4531.662905425119,-20162.449908003404,0.0
1405.6484122400127,9076.294651097707,12355.208079027754,7557.189727344722,-6194.866054149969,527.1970513454129,-4533.091978730626,-20172.7868715799,0.0
1406.8512156054805,9072.936328829768,12351.4567616008,7553.426500973556,-6198.593553688497,525.2678023829798,-4528.35221893403,-20179.158156733614,0.0
1404.3265194324197,9071.17380508631,12351.230491660763,7552.104608165962,-6199.724903388689,525.2916202714049,-4528.733305148831,-20173.239411459977,0.0
1404.8028772009216,9069.54227972919,12350.694589171197,7549.901453486641,-6201.487427132148,522.9693761499574,-4531.400908652443,-20166.117862820873,0.0
1407.184666043432,9069.54227972919,12350.218231402696,7549.770455100303,-6200.713345758331,525.0534413871537,-4529.793201183749,-20159.579852448183,0.0
1405.5055049094622,9069.494643952341,12349.467967917304,7549.925271375067,-6200.975342531008,524.3627226228258,-4532.413168910511,-20155.37599514115,0.0
1408.3636515204744,9071.411983970562,12350.468319231159,7550.246812868805,-6201.928058068012,520.7662214706355,-4533.568336499127,-20149.20716203905,0.0
1409.9713589891687,9067.982208037347,12346.990907521093,7544.828243252095,-6207.644351290036,513.0611345651151,-4536.8194782691535,-20159.043949958617,0.0
1412.1149689474278,9071.471528691623,12351.575851042926,7549.044009503337,-6203.297586652455,519.5396002167428,-4533.99705849078,-20158.793862130155,0.0
1404.6242430377335,9070.340178991431,12351.206673772336,7548.54383384641,-6202.880773605016,521.016309299099,-4534.5567788687695,-20159.29403778708,0.0
1400.896743499205,9073.496049207757,12353.42173739587,7552.354695994426,-6196.997755164016,527.2446871222631,-4527.197051345413,-20177.205089882755,0.0
1400.813380889717,9075.65156811023,12354.86271964559,7554.831756390638,-6195.687771300635,528.4593994319433,-4529.364479192097,-20187.244329853937,0.0
1406.1843147295776,9072.0193401254,12351.254309549187,7550.437355976206,-6202.225781673325,518.2653431859999,-4538.320005239935,-20183.504921371197,0.0
1408.53037673945,9069.435099231277,12349.17024431199,7549.675183546603,-6203.154679321905,516.9434503784067,-4544.810379835775,-20182.278300117305,0.0
1413.9608553003734,9074.079587474173,12354.088638271773,7556.451372803544,-6195.104233034221,526.4706057484474,-4534.223328430818,-20164.903150511193,0.0
1409.5783638301548,9074.615489963737,12355.398622135153,7556.534735413032,-6194.449241102529,526.8993277400992,-4526.839783019036,-20155.506993527488,0.0
1410.4834435903085,9072.841057276068,12353.528917893784,7555.248569438077,-6195.699680244848,523.136101368933,-4531.091276102917,-20153.684925062968,0.0
1404.2550657671445,9070.685538373597,12350.19441351427,7551.842611393287,-6198.283921138971,521.8618443381902,-4533.163432395901,-20156.44780012028,0.0
1403.8620706081301,9068.113206423684,12347.229086405345,7548.436653348497,-6201.939967012225,521.1830345180747,-4536.93856771128,-20164.593517961664,0.0
1411.7815185094764,9073.412686598269,12351.325763214461,7554.331580733709,-6195.794951798548,528.8523945909576,-4531.80581275567,-20170.96480311538,0.0
1413.4725885876587,9076.890098308335,12354.100547215985,7556.379919138269,-6194.842236261544,526.3515163063217,-4526.125246366283,-20173.1679577947,0.0
1411.7815185094764,9072.1146116791,12350.968494888086,7551.723521951161,-6199.367635062314,519.9564132641821,-4530.841188274453,-20184.31472957765,0.0
1405.6841390726504,9071.054715644184,12353.076378013706,7554.18867340316,-6195.580590802721,527.0779619032875,-4528.983392977295,-20172.03660809451,0.0
1403.6477096123042,9070.494995266194,12352.004573034577,7553.378865196705,-6197.843290203107,527.4947749507268,-4529.221571861547,-20162.580906389743,0.0
1405.9461358453266,9068.065570646833,12349.110699590927,7549.425095718138,-6202.523505278639,521.5998475655141,-4534.5925057014065,-20161.556737187464,0.0
1404.636151981946,9069.625642338679,12348.789158097188,7548.793921674874,-6204.905294121149,517.0029950994694,-4536.640844105966,-20160.04430127247,0.0
1408.1373815804359,9078.021448008527,12357.113510101763,7556.653824855157,-6197.724200760981,521.9690248361031,-4530.114742677488,-20152.85129896809,0.0
1409.1734597269278,9075.711112831292,12355.743981517318,7556.082195532955,-6195.56868185851,522.5644720467307,-4528.2926742129675,-20157.57914982047,0.0
1408.5661035720877,9073.93668014362,12354.243454546537,7554.8913011117,-6195.259049308983,522.3858378835424,-4531.210365545042,-20163.485986149895,0.0
1408.6256482931503,9073.424595542481,12353.397919507446,7552.9025074282035,-6199.427179783376,521.8261175055526,-4532.960980344287,-20174.14449122013,0.0
1408.2207441899238,9072.960146718193,12352.326114528316,7552.378513882852,-6199.105638289637,522.6835614888562,-4532.210716858897,-20181.8019423488,0.0
1409.3997296669663,9075.365753449129,12353.98145777386,7554.307762845285,-6196.616668949214,524.8628982797529,-4531.24609237768,-20181.599490297187,0.0
1402.3139078604986,9068.827743076437,12347.395811624321,7547.483937811493,-6202.940318326078,518.9679708945403,-4536.581299384903,-20187.327692463427,0.0
1407.7324774772092,9070.697447317809,12350.539772896433,7551.497252011123,-6197.212116159842,523.0170119268076,-4534.223328430818,-20178.562709522987,0.0
1411.7577006210515,9074.424946856336,12353.290739009533,7552.759600097653,-6199.093729345424,520.8495840801233,-4533.127705563263,-20159.425036173416,0.0
1410.5906240882214,9076.354195818769,12355.065171697204,7554.176764458947,-6197.188298271416,523.4695518068845,-4531.186547656617,-20153.851650281944,0.0
1408.7923735121262,9074.925122513263,12352.981106460007,7552.962052149266,-6197.628929207281,522.7907419867691,-4531.972537974645,-20156.507344841342,0.0
1406.7440351075677,9073.281688211931,12350.730316003835,7549.484640439202,-6201.630334462698,519.4324197188298,-4536.557481496478,-20165.820139215557,0.0
1407.0655766013062,9074.091496418385,12352.95728857158,7551.43770729006,-6199.010366735937,521.7665727844898,-4533.961331658142,-20168.86882893397,0.0
1401.9804574225473,9068.756289411162,12349.003519093014,7548.412835460072,-6201.45170029951,521.0520361317367,-4535.390404963648,-20179.574969781053,0.0
1403.4809843933285,9071.626344966386,12352.183207197764,7551.378162568997,-6198.593553688497,520.6114051958723,-4538.093735299896,-20188.268499056216,0.0
1405.9461358453266,9076.389922651408,12356.482336058498,7556.546644357245,-6192.6033547495845,524.148361627,-4537.629286475608,-20185.01735728619,0.0
1405.6007764631624,9073.031600383467,12354.07672932756,7554.081492905246,-6192.841533633835,527.9354058865912,-4533.294430782239,-20182.21875539624,0.0
1405.7079569610758,9071.804979129576,12352.004573034577,7552.307060217576,-6195.759224965911,524.5770836186517,-4532.413168910511,-20175.645018190913,0.0
1403.790616942855,9073.60322970567,12352.24275191883,7551.330526792148,-6198.248194306334,522.635925712006,-4532.949071400075,-20163.759891866786,0.0
1400.8610166665674,9073.746137036222,12352.897743850519,7551.270982071084,-6198.033833310507,522.6716525446436,-4533.163432395901,-20159.413127229203,0.0
1402.3853615257738,9072.305154786502,12350.789860724897,7550.163450259317,-6199.843992830815,518.6940651776516,-4535.8191269553,-20158.293686473226,0.0
1401.6350980403831,9071.018988811547,12349.515603694153,7549.47273149499,-6198.867459405386,521.3140329044129,-4540.344525756069,-20164.414883798476,0.0
1401.8970948130593,9074.686943629013,12353.183558511619,7552.330878106001,-6197.366932434605,521.7784817287023,-4534.711595143533,-20167.808932899054,0.0
1401.5517354308952,9072.829148331855,12351.849756759815,7550.735079581519,-6200.320350599318,516.8600877689188,-4535.21177080046,-20174.13258227592,0.0
1399.1937644768102,9072.38851739599,12352.254660863042,7550.008633984554,-6201.082523028921,518.8726993408399,-4534.485325203494,-20182.576023722613,0.0
1403.623891723879,9076.330377930344,12356.256066118458,7553.67658880202,-6195.556772914298,523.8863648543238,-4531.400908652443,-20186.029617544256,0.0
1404.874330866197,9075.258572951216,12355.481984744642,7553.307411531431,-6194.854145205757,525.4345276019554,-4532.734710404249,-20181.444674022423,0.0
1407.2442107644947,9072.94823777398,12352.290387695677,7551.068530019471,-6198.272012194759,522.0285695571658,-4537.557832810332,-20177.800537093382,0.0
1407.2323018202821,9068.589564192187,12346.788455469481,7545.673778291185,-6204.524207906348,514.8712940854228,-4539.8800769317795,-20166.844308417836,0.0
1403.5881648912416,9071.185714030524,12348.205619830773,7548.710559065386,-6200.629983148844,520.1826832042206,-4534.854502474082,-20157.38860671307,0.0
1406.410584669616,9073.055418271893,12351.50439737765,7552.521421213402,-6195.604408691147,527.3161407875384,-4528.923848256232,-20148.063903394646,0.0
1406.3748578369784,9066.96994777928,12345.597561048226,7546.805127991378,-6201.523153964785,518.7536098987143,-4537.9151011367085,-20158.996314181764,0.0
1407.2680286529198,9070.05436433033,12349.26551586569,7548.317563906372,-6200.653801037269,518.4320684049756,-4538.701091454737,-20171.857973931317,0.0
1402.7188119637253,9072.233701121226,12352.778654408394,7550.187268147742,-6197.998106477869,522.2786573856295,-4537.391107591356,-20175.62120030249,0.0
1398.062414776618,9070.685538373597,12351.03994855336,7548.412835460072,-6201.904240179587,516.5980909962427,-4539.999166373906,-20182.82611155108,0.0
1399.8249385200754,9069.67327811553,12350.62313550592,7548.40092651586,-6202.190054840688,517.2888097605706,-4536.176395281676,-20187.553962403465,0.0
1405.0648739735977,9072.078884846464,12352.326114528316,7550.36590231093,-6199.331908229676,520.6590409727226,-4534.437689426644,-20185.374625612563,0.0
1402.0757289762478,9068.64910891325,12348.872520706676,7547.460119923067,-6202.070965398563,516.7529072710059,-4538.939270338988,-20178.81279735145,0.0
1400.7062003918043,9068.13702431211,12348.384253993961,7548.198474464247,-6199.67726761184,519.48005549568,-4536.855205101791,-20163.46216826147,0.0
1404.7314235356464,9073.579411817245,12352.564293412566,7551.092347907896,-6196.295127455475,522.0047516687408,-4537.391107591356,-20149.933607636012,0.0
1400.8371987781422,9074.234403748937,12353.374101619022,7550.115814482468,-6200.84434414467,515.6453754592387,-4542.35713732799,-20149.1595262622,0.0
1399.5272149147618,9070.113909051393,12350.742224948048,7548.234201296884,-6200.915797809946,517.3602634258459,-4538.320005239935,-20156.888431056144,0.0
1401.801823259359,9070.602175764107,12351.3614900471,7549.8061819329405,-6197.724200760981,521.7665727844898,-4533.1991592285385,-20168.273381723346,0.0
1404.1478852692314,9069.16119351439,12349.991961462656,7548.246110241096,-6198.200558529483,520.063593762095,-4535.402313907861,-20178.646072132477,0.0
1403.9097063849804,9071.149987197885,12350.61122656171,7548.531924902197,-6197.90283492417,520.7424035822104,-4535.140317135185,-20186.684609475946,0.0
1398.6221351546078,9070.18536271667,12349.634693136279,7547.5792093651935,-6201.142067749984,517.5627154774594,-4537.534014921906,-20192.055543315804,0.0
1402.8021745732133,9071.50725552426,12352.469021858868,7549.889544542429,-6198.55782685586,519.1585140019412,-4536.235940002739,-20185.696167106304,0.0
1407.9944742498853,9074.508309465824,12354.993718031927,7552.938234260841,-6194.365878493041,523.3147355321214,-4533.568336499127,-20178.050624921845,0.0
1406.3748578369784,9071.864523850638,12350.718407059623,7548.59146962326,-6198.510191079009,519.6586896588683,-4537.176746595531,-20166.57040270095,0.0
1407.256119708707,9071.673980743237,12350.206322458482,7548.150838687396,-6199.11754723385,519.5515091609553,-4539.701442768591,-20152.61312008384,0.0
1407.8515669193348,9067.946481204708,12346.109645649365,7545.923866119649,-6201.368337690023,517.598442310097,-4541.511602288899,-20153.36338356923,0.0
1409.780815881768,9071.197622974736,12349.336969530967,7548.531924902197,-6200.498984762506,516.5266373309674,-4540.439797309769,-20164.772152124853,0.0
1401.194467104519,9072.781512555004,12351.87357464824,7551.497252011123,-6196.533306339726,520.4684978653218,-4539.796714322292,-20169.98826968995,0.0
1403.3261681185654,9071.07853353261,12350.99231277651,7549.972907151916,-6196.962028331378,521.1711255738622,-4540.475524142407,-20178.538891634562,0.0
1406.6130367212295,9074.424946856336,12353.969548829647,7552.402331771277,-6195.235231420558,522.5763809909432,-4537.8793743040715,-20185.1245377841,0.0
1397.7885090597292,9073.531776040394,12353.731369945397,7551.53297884376,-6195.937859129099,521.1473076854371,-4539.665715935954,-20187.399146128697,0.0
1395.9188048183587,9070.614084708319,12351.337672158674,7548.948737949637,-6196.497579507089,519.3728749977671,-4538.236642630447,-20184.290911689226,0.0
1398.7531335409458,9072.126520623313,12352.421386082016,7550.31826653408,-6195.461501360596,518.4677952376131,-4538.272369463086,-20181.813851293013,0.0
1399.836847464288,9074.06767852996,12353.636098391697,7549.401277829714,-6199.748721277115,516.3360942235666,-4539.2369939443015,-20170.40508273739,0.0
1401.7899143151465,9072.841057276068,12352.290387695677,7548.972555838062,-6199.2842724528255,518.7297920102893,-4536.890931934429,-20159.032041014405,0.0
1406.1604968411525,9074.567854186887,12354.100547215985,7551.699704062737,-6195.735407077485,522.4930183814554,-4536.581299384903,-20152.720300581754,0.0
1405.8627732358389,9075.865929106056,12355.362895302516,7553.81949613257,-6192.6033547495845,527.9354058865912,-4536.033487951126,-20158.555683245904,0.0
1404.481335707183,9077.890449622188,12356.946784882786,7556.653824855157,-6189.066398318457,530.6625541112652,-4534.163783709755,-20164.93887734383,0.0
1403.4809843933285,9076.687646256722,12355.958342513144,7552.604783822891,-6195.640135523785,521.4212134023257,-4539.487081772766,-20176.51437111843,0.0
1405.0410560851726,9077.140186136798,12357.61368575869,7553.343138364068,-6197.235934048266,517.9557106364736,-4540.48743308662,-20186.505975312757,0.0
1406.1366789527274,9075.044211955388,12356.017887234206,7553.414592029343,-6195.080415145795,521.6474833423642,-4536.283575779589,-20191.424369272543,0.0
1402.2067273625855,9076.711464145146,12356.232248230031,7553.628953025169,-6194.211062218279,523.1003745362955,-4534.5210520361325,-20185.231718282015,0.0
1400.2655694559398,9078.462078944392,12358.256768746167,7554.736484836936,-6192.841533633835,524.4222673438886,-4536.05730583955,-20174.620848988634,0.0
1402.9450819037638,9076.687646256722,12356.994420659636,7553.581317248319,-6192.674808414859,525.791795928332,-4536.104941616401,-20168.976009431884,0.0
1405.1601455272983,9074.174859027873,12354.969900143502,7551.151892628958,-6197.378841378817,520.7185856937854,-4537.986554801983,-20167.689843456927,0.0
1405.2315991925734,9073.769954924644,12354.148182992836,7550.199177091955,-6198.498282134798,517.7889854174978,-4539.487081772766,-20164.498246407962,0.0
1406.2676773390654,9075.746839663929,12355.33907741409,7552.247515496513,-6195.818769686974,518.0628911343864,-4537.510197033483,-20163.59316664781,0.0
1407.7682043098469,9074.841759903775,12353.731369945397,7550.806533246795,-6196.461852674452,520.2898637021334,-4536.188304225889,-20174.918572593946,0.0
1403.2904412859277,9068.815834132225,12348.37234504975,7546.578858051339,-6200.33225954353,517.7532585848602,-4540.48743308662,-20191.26955299778,0.0
1404.2312478787192,9071.376257137923,12352.338023472528,7551.199528405809,-6195.532955025872,521.0877629643743,-4536.855205101791,-20195.47341030481,0.0
1400.849107722355,9072.328972674928,12352.897743850519,7550.746988525732,-6195.592499746935,522.3739289393299,-4535.6524017363245,-20197.53365765358,0.0
1399.1580376441727,9074.151041139447,12353.910004108586,7552.176061831238,-6193.532252398164,525.7441601514818,-4535.366587075223,-20190.4359269029,0.0
1400.503748340191,9074.972758290114,12354.35063504445,7553.093050535605,-6193.3774361234,524.5056299533765,-4532.722801460037,-20183.647828701745,0.0
1400.2655694559398,9070.05436433033,12350.027688295293,7546.971853210353,-6199.403361894951,519.3847839419795,-4533.330157614876,-20177.383724045943,0.0
1402.432997302624,9068.720562578525,12349.384605307816,7546.614584883977,-6199.581996058139,519.8968685431194,-4536.509845719627,-20171.32207144176,0.0
1399.7653937990128,9072.066975902251,12351.730667317688,7549.175007889675,-6198.021924366295,522.2429305529918,-4536.093032672188,-20162.223638063366,0.0
1398.514954656695,9070.602175764107,12350.813678613322,7548.972555838062,-6197.366932434605,522.7669240983441,-4536.724206715454,-20168.71401265921,0.0
1400.6228377823163,9068.684835745886,12348.288982440261,7546.1620450039,-6199.86781071924,515.7882827897893,-4539.677624880166,-20179.015249403063,0.0
1401.2540118255815,9066.993765667705,12347.86026044861,7545.173602634258,-6201.225430359472,512.9539540672021,-4543.107400813381,-20192.400902697973,0.0
1402.2900899720735,9069.828094390292,12350.063415127932,7546.602675939765,-6198.581644744285,517.7651675290726,-4542.809677208066,-20198.117195919993,0.0
1402.885537182701,9072.90060199713,12353.13592273477,7549.794272988728,-6196.842938889253,519.0632424482407,-4540.48743308662,-20201.27306613632,0.0
1399.8725742969257,9073.22214349087,12353.517008949571,7549.508458327627,-6198.927004126449,516.3956389446294,-4541.523511233112,-20197.664656039917,0.0
1393.977646911713,9069.720913892379,12349.718055745769,7546.7455832703145,-6200.28462376668,514.5140257590464,-4542.380955216415,-20195.33050297426,0.0
1397.9195074460672,9065.01688092842,12345.776195211414,7542.875176401236,-6202.213872729113,512.2513263586617,-4548.299700490053,-20183.874098641783,0.0
1399.2414002536605,9067.184308775106,12347.753079950697,7545.411781518509,-6199.951173328728,515.2523803002244,-4546.739628798209,-20170.107359132075,0.0
1397.7051464502415,9067.148581942467,12349.015428037226,7545.911957175436,-6200.165534324554,517.7889854174978,-4542.476226770116,-20166.129771765085,0.0
1394.2515526286018,9064.135619056693,12345.06165855866,7541.172197378841,-6205.203017726463,512.6681394061009,-4543.274126032356,-20178.443620080863,0.0
1395.2638128866683,9065.25505981267,12345.418926885037,7541.338922597816,-6206.060461709767,507.1185714030522,-4547.382711785687,-20187.887412841414,0.0
1399.491488082124,9067.48203238042,12346.407369254679,7544.75678958682,-6201.54697185321,514.8236583085727,-4543.810028521922,-20191.817364431554,0.0
1397.2526065701645,9064.921609374722,12343.811219416342,7542.4464544095845,-6202.178145896475,515.633466515026,-4547.251713399349,-20197.938561756808,0.0
1393.5608338642737,9062.337368480597,12343.632585253154,7541.172197378841,-6205.953281211854,506.3206721408113,-4553.075187119285,-20202.225781673325,0.0
1395.382902328794,9064.659612602045,12346.169190370427,7543.82789193824,-6202.90459149344,509.83381068351383,-4540.118255816031,-20197.474112932516,0.0
1397.3359691796522,9061.59901393942,12342.263056668711,7539.0881321416455,-6206.739271529882,509.2145455844612,-4543.071673980743,-20192.35326692112,0.0
1398.4911367682698,9061.110747226705,12340.845892307418,7537.218427900274,-6209.7045986388075,506.8803925188012,-4545.608279098017,-20182.028212288842,0.0
1401.3016476024318,9064.349980052517,12344.525756069095,7542.851358512811,-6202.868864660803,514.3830273727083,-4539.55853543804,-20169.035554152946,0.0
1401.4683728214075,9062.456457922723,12342.703687604575,7541.291286820967,-6203.571492369344,511.17952137953205,-4548.7879672027675,-20167.60648084744,0.0
1404.2788836555694,9059.622129200136,12339.273911671362,7538.433140209954,-6207.013177246771,508.7620057043843,-4551.372208096891,-20173.120322017854,0.0
1403.8025258870673,9059.74121864226,12340.036084100964,7538.587956484718,-6208.751883101803,510.16726112146523,-4549.109508696507,-20181.158859361323,0.0
1392.65575410412,9056.108990657433,12337.0350301594,7534.062557683948,-6213.146283516235,504.27233373625256,-4556.135785781911,-20193.93715650139,0.0
1392.0841247819176,9058.133511173566,12339.154822229235,7536.682525410709,-6208.751883101803,508.6190983738337,-4549.490594911308,-20198.950822014875,0.0
1390.5240530900733,9053.9891985876,12334.736603926378,7532.704938043717,-6213.241555069935,503.1409840360602,-4553.313366003537,-20211.312306107502,0.0
1388.5709862392148,9050.880964148124,12331.128193829974,7529.322797887353,-6216.397425286262,500.2471105924104,-4554.5280783132175,-20212.455564751905,0.0
1395.6925348783202,9055.061003566729,12335.760773128657,7534.145920293436,-6210.764494673725,506.52312419242475,-4550.860123495751,-20198.355374804247,0.0
1393.608469641124,9054.263104304488,12334.355517711576,7533.3122941985575,-6211.431395549627,507.29720556624056,-4554.706712476405,-20188.185136446726,0.0
1390.4049636479476,9051.19059669765,12329.61575791498,7529.239435277865,-6213.146283516235,505.3441387153822,-4558.5294835686345,-20184.255184856585,0.0
1388.8925277329538,9047.701276043372,12324.221006186697,7522.248885025098,-6222.435260002025,494.01873276924636,-4565.913028980416,-20186.446430591695,0.0
1388.7734382908284,9047.093919888532,12323.81610208347,7519.9147319594385,-6226.627208364842,489.2908819168636,-4567.2825575648585,-20194.28251588355,0.0
1386.1415616198547,9040.948904674857,12319.731334218564,7518.723837538183,-6227.984828005073,488.6120720967482,-4566.484658302618,-20200.701436814117,0.0
1386.8560982726076,9035.720878165546,12316.30155828535,7515.317879493394,-6229.532990752705,487.44499556391827,-4566.389386748917,-20209.228240870307,0.0
1382.842784072978,9034.994432568581,12315.92047207055,7514.770068059615,-6228.306369498812,489.25515508422603,-4569.045081308317,-20220.208287434278,0.0
1380.591993616806,9033.696357649413,12314.491398765042,7512.709820710845,-6231.414603938288,486.4208263616389,-4571.665049035078,-20223.185523487413,0.0
1380.6753562262938,9030.37376221411,12311.085440720253,7508.398782905901,-6236.737902001299,483.38404558743844,-4570.104977343233,-20219.43420606046,0.0
1382.1877921412877,9029.051869406518,12308.965648650417,7508.16060402165,-6236.011456404332,482.2765137756712,-4575.190096521992,-20213.420189233122,0.0
1385.8795648471785,9027.7061587105,12307.691391619675,7507.481794201535,-6237.273804490863,479.5255476625719,-4576.678714548561,-20199.046093568573,0.0
1386.8084624957573,9027.051166778809,12307.500848512274,7505.373911075913,-6239.1077818995955,480.10908592898693,-4581.57329061992,-20187.792141287715,0.0
1385.4508428555266,9030.18321910671,12310.311359346437,7507.612792587874,-6235.475553914767,480.3115379806003,-4582.847547650663,-20185.660440273667,0.0
1380.1751805693666,9027.19407410936,12307.66757373125,7505.290548466425,-6237.083261383462,475.0596935828654,-4581.442292233582,-20195.556772914297,0.0
1378.198295830083,9021.87077604635,12302.118005728202,7500.300700841366,-6243.645089644578,472.2491827487034,-4583.824081076093,-20207.41808135,0.0
1371.0648382467652,9016.845201588652,12297.580697983221,7497.04955907134,-6247.313044462044,471.7609160359888,-4586.086780476477,-20224.864684621385,0.0
1370.5884804782631,9012.105441792057,12292.698030856074,7490.344823479674,-6253.815328002096,464.3654616799947,-4592.100797303815,-20230.056984298055,0.0
1369.7667633275971,9007.806312931327,12287.779636896292,7483.913993604897,-6261.1512376370265,455.29084619003106,-4598.495900345955,-20238.024067976254,0.0
1372.3748221101457,9017.131016249754,12298.057055751722,7495.620485765834,-6247.86085589582,467.47369611947056,-4589.623736907604,-20229.544899696917,0.0
1368.468688408429,9013.022430496423,12293.734109002566,7492.19070983262,-6250.980999279509,464.4011885126324,-4593.375054334558,-20223.507064981153,0.0
1369.457130778071,9008.354124365105,12286.969828689837,7484.961980695602,-6260.448609928486,456.3626511691606,-4598.138632019578,-20214.62299259859,0.0
1372.791635157585,9008.973389464158,12287.374732793065,7485.557427906229,-6260.674879868525,458.3871716852942,-4595.780661065493,-20207.048904079405,0.0
1374.732793064231,9012.426983285797,12291.471409602182,7492.19070983262,-6252.743523022966,466.1637122560899,-4590.3859093372075,-20195.318594030043,0.0
1374.4707962915547,9012.236440178396,12292.30503569706,7490.892634913452,-6252.814976688242,466.4495269171912,-4591.374351706849,-20202.166236952264,0.0
1371.838919620581,9011.807718186745,12292.924300796112,7490.225734037548,-6253.017428739855,466.532889526679,-4585.836692648013,-20217.98131486653,0.0
1368.3495989663036,9011.831536075168,12292.293126752847,7490.261460870186,-6254.184505272685,461.9598549490595,-4589.2902864696525,-20225.519676553075,0.0
1368.6473225716175,9014.010872866065,12294.115195217368,7491.833441506243,-6253.327061289381,464.4964600663328,-4589.957187345556,-20223.67379020013,0.0
1368.945046176931,9013.713149260753,12294.579644041656,7492.143074055769,-6251.0762708332095,465.8540797065636,-4589.468920632841,-20229.56871758534,0.0
1370.9100219720021,9015.10649573362,12295.568086411298,7493.179152202261,-6250.373643124669,465.5682650454624,-4591.326715929999,-20228.15155322405,0.0
1370.6242073109008,9016.46411537385,12296.663709278853,7494.1318677392655,-6248.754026711762,469.7959402409179,-4589.992914178193,-20223.709517032767,0.0
1373.6490791408887,9019.334170929076,12299.533764834077,7498.049910385195,-6243.787996975128,469.926938627256,-4593.0654217850315,-20205.024383563272,0.0
1373.6014433640385,9021.21578411466,12301.7369195134,7501.25341637837,-6241.084666638879,474.9406041407399,-4584.61007139412,-20195.771133910122,0.0
1373.8872580251398,9021.144330449382,12301.59401218285,7500.300700841366,-6245.181343447996,472.6898136845678,-4579.596405880637,-20194.151517497216,0.0
1372.7201814923096,9020.572701127181,12300.117303100493,7498.073728273619,-6246.443691534527,468.11677910694823,-4581.406565400945,-20200.213170101404,0.0
1371.9222822300687,9023.573755068745,12302.725361883042,7500.586515502468,-6242.882917214974,473.48771294680864,-4579.060503391072,-20207.8944391185,0.0
1373.4942628661256,9023.27603146343,12303.535170089495,7502.110860361675,-6241.27520974628,475.4884155745172,-4578.750870841545,-20215.337529251345,0.0
1376.0070500949737,9024.728922657361,12304.595066124413,7503.801930439857,-6237.9764321994035,477.9416580823027,-4576.4524446085225,-20220.744189923844,0.0
1375.578328103322,9026.82489683877,12306.917310245859,7506.933982767758,-6234.332295270362,480.65689736276425,-4574.642285088215,-20225.68640177205,0.0
1377.5313949541803,9027.622796101012,12306.988763911135,7505.838359900203,-6236.332997898071,479.68036393733513,-4576.595351939073,-20215.87343174091,0.0
1377.2693981815041,9026.58671795452,12306.536224031057,7504.992824861112,-6237.797798036215,479.79945337946066,-4574.6065582555775,-20208.299343221726,0.0
1378.4960194353969,9024.6693779363,12304.571248235987,7504.218743487296,-6237.178532937162,480.74025997225215,-4575.190096521992,-20203.83348914202,0.0
1384.009860605808,9025.455368254328,12305.250058056103,7505.088096414812,-6235.308828695792,479.2516419456833,-4573.618115885936,-20197.16448038299,0.0
1391.3695881291644,9032.410191674457,12310.918715501277,7509.696857825069,-6233.117582960682,480.8117136375275,-4574.273107817627,-20186.66079158752,0.0
1392.0364890050673,9037.864488123805,12317.647268981367,7516.973222738938,-6224.828957788746,490.6365926128819,-4570.224066785358,-20187.720687622437,0.0
1386.5345567788686,9039.222107764035,12319.778969995416,7518.80720014767,-6223.423702371666,492.95883673432934,-4570.283611506422,-20194.222971162493,0.0
1377.8767543363444,9034.172715417913,12314.860576035631,7513.031362204584,-6229.187631370541,488.2190769377341,-4574.844737139829,-20205.203017726464,0.0
1379.3891902513383,9032.588825837645,12312.57405874682,7509.625404159794,-6235.844731185357,479.5255476625719,-4573.522844332235,-20211.931571206555,0.0
1384.3194931553342,9034.660982130628,12314.241310936579,7511.185475851638,-6234.451384712488,480.56162580906386,-4573.40375489011,-20214.57535682174,0.0
1385.7485664608403,9035.887603384523,12316.313467229564,7513.960259853163,-6229.46153708743,485.3252034940842,-4571.569777481377,-20214.551538933316,0.0
1391.667311734478,9039.234016708248,12320.112420433366,7520.700722277466,-6219.088846678297,498.0439559130885,-4564.198141013809,-20205.75082916024,0.0
1395.6687169898953,9043.521236624767,12323.613650031855,7522.415610244073,-6217.7431359822795,499.92556909867153,-4561.316176514371,-20192.78198891277,0.0
1397.1454260722514,9043.664143955319,12321.779672623123,7518.045027718067,-6227.83001173031,487.7189012808069,-4565.0436760529,-20183.874098641783,0.0
1388.618622016065,9045.4504855872,12323.73273947398,7519.283557916172,-6225.114772449849,489.0884298652503,-4565.353308602426,-20179.777421832667,0.0
1388.0827195265003,9043.878504951143,12322.768114992765,7518.580930207632,-6226.127032707915,487.9451712208454,-4565.805848482503,-20186.482157424332,0.0
1393.7990127485248,9045.664846583026,12325.68580632484,7521.55816626077,-6223.0307072126525,492.2681179700013,-4563.483604361055,-20194.842236261542,0.0
1396.7762488016624,9048.415812696125,12328.198593553687,7524.166225043318,-6219.481841837312,496.91260621289615,-4561.494810677559,-20202.082874342774,0.0
1393.977646911713,9049.88061283427,12329.127491202267,7526.88146432378,-6216.3855163420485,498.9252177848173,-4560.7921829690185,-20207.322809796296,0.0
1386.713190942057,9047.939454927622,12327.650782119912,7526.071656117327,-6217.23105138114,495.90034595482933,-4559.6251064361895,-20211.907753318126,0.0
1388.463805741302,9045.5457571409,12326.698066582907,7525.261847910873,-6216.01633907146,498.24640796470186,-4557.683948529543,-20209.58550919668,0.0
1390.821776695387,9047.65364026652,12329.079855425418,7524.618764923396,-6219.731929665775,495.2096271905014,-4558.410394126509,-20202.261508505962,0.0
1390.5359620342858,9049.618616061593,12331.747458929029,7528.036631912398,-6216.242609011498,499.4730292185946,-4553.93263110259,-20187.827868120352,0.0
1393.2988370915978,9049.404255065767,12331.1520117184,7528.786895397788,-6213.9680006669005,500.74728624933755,-4554.921073472231,-20178.30071275031,0.0
1395.2280860540307,9049.749614447932,12331.163920662613,7529.596703604242,-6212.979558297258,505.11786877534365,-4548.89514770068,-20175.942741796225,0.0
1392.7986614346705,9047.332098772784,12327.519783733573,7525.476208906699,-6217.445412376966,499.9612959313092,-4555.635610124984,-20190.090567520736,0.0
1394.2039168517515,9049.737705503718,12329.37757903073,7527.095825319606,-6215.825795964059,500.6281968072121,-4553.00373345401,-20191.341006663053,0.0
1392.2627589451058,9048.832625743564,12329.580031082345,7526.536104941617,-6215.242257697644,502.96234987287204,-4553.313366003537,-20201.284975080533,0.0
1395.6448991014702,9054.14401486236,12336.487218725622,7533.526655194383,-6206.358185315081,510.9651603837062,-4548.990419254381,-20204.428936352648,0.0
1394.8827266718667,9053.953471754961,12336.165677231886,7532.81211854163,-6208.192162723813,507.9402885537183,-4549.21668919442,-20209.859414913568,0.0
1395.3590844403689,9054.22737747185,12334.653241316892,7528.6320791230255,-6215.2541666418565,501.7476375631918,-4549.740682739772,-20204.762386790597,0.0
1397.133517128039,9054.560827909801,12335.320142192795,7530.061152428531,-6213.015285129897,501.6523660094914,-4550.538582002012,-20197.104935661926,0.0
1396.4308894194985,9053.42947820961,12333.9982493852,7529.251344222078,-6213.277281902573,500.71155941669986,-4553.301457059324,-20189.649936584872,0.0
1398.1457773861057,9054.50128318874,12335.046236475906,7531.335409459274,-6212.05066064868,505.0106882774308,-4552.813190346609,-20180.218052768534,0.0
1397.6694196176038,9052.583943170519,12332.59299396812,7528.84644011885,-6214.980260924967,503.2243466455481,-4558.446120959146,-20179.241519343104,0.0
1398.7888603735835,9052.572034226307,12333.045533848195,7528.774986453576,-6213.896547001626,501.4380050136655,-4560.363460977367,-20183.159561989032,0.0
1397.5503301754784,9052.345764286269,12331.795094705878,7526.571831774254,-6216.849965166339,496.1266158948678,-4562.364163605076,-20193.06780357387,0.0
1393.2154744821098,9051.464502414537,12330.25884090246,7527.5007294228335,-6213.4797339541865,503.09334825921,-4554.206536819478,-20205.631739718116,0.0
1398.6340440988204,9056.275715876409,12335.11769014118,7533.776743022847,-6205.715102327603,513.1683150630281,-4548.79987614698,-20207.263265075235,0.0
1397.8599627250046,9057.204613524988,12336.129950399247,7532.621575434229,-6209.835597025146,508.6429162622588,-4550.276585229336,-20209.609327085105,0.0
1396.20461947946,9053.25084404642,12332.461995581782,7527.9889961355475,-6214.372904770127,499.44921133016953,-4555.302159687032,-20208.954335153416,0.0
1393.656105417974,9053.286570879058,12333.748161556738,7529.215617389441,-6213.003376185684,500.6281968072121,-4553.61108960885,-20204.91720306536,0.0
1393.6203785853363,9057.347520855537,12337.058848047825,7531.752222506713,-6212.491291584544,503.93888329830116,-4548.930874533317,-20185.981981767407,0.0
1398.7412245967334,9059.991306470725,12339.154822229235,7533.550473082809,-6211.44330449384,501.9262717263801,-4551.979564251732,-20177.717174483892,0.0
1400.2298426233021,9057.645244460853,12338.916643344983,7535.086726886228,-6207.727713899524,507.1185714030522,-4548.692695649067,-20184.255184856585,0.0
1398.7531335409458,9055.775540219482,12336.9397586057,7532.585848601592,-6210.109502742034,504.45096789944085,-4549.419141246033,-20192.079361204233,0.0
1402.2067273625855,9058.52650633258,12338.452194520694,7534.6699138387885,-6206.989359358346,507.80929016738014,-4546.477632025532,-20194.187244329853,0.0
1399.574850691612,9056.811618365973,12337.809111533217,7533.610017803871,-6208.918608320779,506.5945778577,-4549.597775409221,-20202.594958943915,0.0
1398.6221351546078,9058.597959997855,12339.428727946122,7534.396008121899,-6209.2877855913675,505.5465907669955,-4552.813190346609,-20207.97780172799,0.0
1395.4543559940691,9056.644893146999,12336.630126056174,7531.275864738212,-6211.5147581591145,502.77180676547124,-4554.420897815304,-20209.228240870307,0.0
1398.1457773861057,9056.97834358495,12336.10613251082,7531.859403004626,-6210.180956407309,504.03415485200156,-4554.659076699555,-20202.785502051316,0.0
1399.491488082124,9059.538766590647,12339.083368563959,7534.288827623986,-6207.263265075235,508.6548252064713,-4550.026497400872,-20199.308090341252,0.0
1401.5279175424703,9062.480275811147,12341.691427346508,7536.956431127598,-6203.547674480918,513.1087703419653,-4544.703199337863,-20187.649233957163,0.0
1407.6729327561463,9064.064165391417,12345.06165855866,7541.386558374667,-6199.189000899125,516.0979153393156,-4539.439445995915,-20175.16866042241,0.0
1409.0067345079522,9064.26661744303,12345.407017940823,7542.327364967458,-6199.224727731763,514.0614858789694,-4542.797768263855,-20169.083189929795,0.0
1408.7566466794885,9063.718806009252,12341.691427346508,7538.6713190942055,-6203.392858206155,511.501062873271,-4544.929469277901,-20176.192829624688,0.0
1405.6365032958004,9060.90829517509,12337.940109919555,7534.086375572373,-6208.35888794279,507.36865923151584,-4546.310906806557,-20183.80264497651,0.0
1400.896743499205,9059.229134041123,12337.094574880464,7533.074115314306,-6208.049255393264,507.45202184100367,-4548.490243597454,-20192.650990526436,0.0
1401.6112801519582,9059.264860873758,12339.702633663012,7536.229985530633,-6205.56028605284,509.6551765203256,-4544.810379835775,-20196.116493292284,0.0
1405.1244186946606,9063.182903519688,12344.585300790159,7539.469218356447,-6203.309495596668,512.3465979123621,-4539.296538665365,-20197.20020721563,0.0
1403.6715275007293,9062.15873431741,12344.049398300593,7540.243299730262,-6201.689879183761,514.335391595858,-4540.48743308662,-20193.174984071786,0.0
1403.5405291143913,9063.14717668705,12345.633287880863,7542.386909688522,-6197.771836537831,516.3837300004168,-4544.024389517747,-20185.44607927784,0.0
1404.4456088745453,9064.742975211531,12346.824182302116,7544.125615543554,-6196.426125841813,521.0877629643743,-4539.201267111664,-20176.14519384784,0.0
1401.5874622635329,9063.70689706504,12345.71665049035,7541.600919370493,-6200.153625380342,517.7532585848602,-4539.737169601229,-20171.036256780655,0.0
1403.552438058604,9065.52896552956,12348.241346663412,7544.423339148868,-6197.152571438779,517.8008943617103,-4542.26186577429,-20166.796672640987,0.0
1410.5906240882214,9069.506552896553,12350.956585943874,7549.234552610737,-6190.48356267975,522.8621956520445,-4536.759933548091,-20171.95324548502,0.0
1410.9121655819604,9071.245258751585,12352.218934030403,7550.723170637307,-6190.828922061914,522.3620199951173,-4533.401611280152,-20177.991080200783,0.0
1398.0028700555551,9067.005674611915,12348.05080355601,7543.804074049815,-6199.141365122276,515.288107132862,-4540.868519301422,-20188.53049582889,0.0
1399.2890360305107,9067.20812666353,12348.026985667586,7543.673075663477,-6197.986197533658,516.1336421719532,-4539.379901274852,-20197.795654426256,0.0
1398.9555855925591,9067.601121822545,12348.872520706676,7545.066422136346,-6195.937859129099,517.384081314271,-4537.236291316593,-20206.822634139367,0.0
1399.229491309448,9069.720913892379,12350.646953394345,7547.221941038817,-6194.925598871032,518.3367968512752,-4536.378847333289,-20198.117195919993,0.0
1395.168541332968,9069.601824450252,12350.80176966911,7547.079033708266,-6195.580590802721,519.0513335040282,-4535.033136637271,-20191.210008276717,0.0
1400.4680215075532,9069.458917119702,12350.158686681632,7546.4478596650015,-6196.056948571224,515.9073722319148,-4537.141019762892,-20180.837317867583,0.0
1398.7769514293711,9063.349628738664,12344.013671467956,7541.3151047093925,-6200.23698798983,512.8229556808641,-4542.416682049053,-20175.144842533988,0.0
1397.0144276859135,9064.58815893677,12344.239941407996,7541.565192537855,-6199.462906616013,514.1448484884572,-4541.7259632847245,-20169.321368814046,0.0
1401.8732769246342,9070.18536271667,12349.706146801556,7546.948035321928,-6193.032076741236,521.1592166296497,-4536.450300998565,-20171.214890943844,0.0
1402.171000529948,9070.494995266194,12350.158686681632,7546.864672712441,-6193.544161342375,522.0642963898035,-4537.772193806158,-20177.729083428105,0.0
1402.6830851310876,9071.114260365246,12351.27812743761,7547.031397931416,-6195.354320862683,519.349057109342,-4542.083231611102,-20184.898267844063,0.0
1401.6350980403831,9071.888341739063,12353.147831678983,7549.234552610737,-6192.281813255846,520.5161336421719,-4535.223679744671,-20190.126294353373,0.0
1401.3850102119197,9070.733174150446,12351.897392536663,7547.614936197831,-6194.8303273173315,519.5634181051679,-4533.330157614876,-20196.009312794373,0.0
1398.6102262103952,9072.245610065438,12353.517008949571,7548.615287511685,-6192.436629530609,524.148361627,-4531.960629030434,-20195.43768347217,0.0
1397.6694196176038,9070.042455386118,12351.611577875563,7547.543482532556,-6193.020167797024,525.1606218850668,-4532.448895743148,-20190.257292739712,0.0
1399.9440279622008,9069.506552896553,12349.765691522618,7546.590766995552,-6193.877611780327,521.230670294925,-4534.425780482431,-20180.015600716917,0.0
1403.8263437754927,9070.864172536783,12350.89704122281,7546.864672712441,-6194.437332158317,517.967619580686,-4536.593208329115,-20165.72486766186,0.0
1404.6718788145838,9069.566097617615,12349.789509411043,7545.376054685871,-6197.021573052441,513.990032213694,-4538.391458905211,-20158.7462263533,0.0
1406.1247700085148,9070.733174150446,12351.468670545013,7548.377108627435,-6191.233826165141,521.8975711708279,-4531.162729768192,-20169.118916762432,0.0
1411.8529721747518,9075.079938788027,12355.779708349955,7552.378513882852,-6185.839074436855,528.0306774402916,-4527.149415568562,-20179.717877111605,0.0
1409.5426369975169,9075.163301397513,12354.386361877088,7550.461173864631,-6190.090567520737,524.6366283397145,-4529.924199570088,-20187.792141287715,0.0
1402.6235404100248,9075.151392453303,12354.255363490749,7549.532276216052,-6192.639081582222,519.3847839419795,-4532.472713631573,-20195.783042854335,0.0
1396.8119756343,9072.53142472654,12352.183207197764,7547.412484146218,-6193.460798732888,519.003697727178,-4532.210716858897,-20203.36904031773,0.0
1400.813380889717,9070.79271887151,12350.62313550592,7544.94733269422,-6195.044688313157,518.2057984649371,-4534.3305089287305,-20199.796357053965,0.0
1403.5762559470288,9074.174859027873,12353.814732554883,7547.948386635783,-6192.662899470647,521.468849179176,-4538.224733686235,-20192.62717263801,0.0
1400.6228377823163,9075.69920388708,12354.041002494923,7549.579911992902,-6191.0194651693155,522.7311972657064,-4536.617026217541,-20182.016303344626,0.0
1404.1717031576566,9076.509012093533,12354.886537534014,7552.426149659701,-6184.683906848238,527.3399586759635,-4530.269558952251,-20169.547638754088,0.0
1403.361894951203,9073.948589087835,12352.123662476703,7550.580263306756,-6187.458690849762,524.7795356702652,-4532.460804687361,-20164.867423678552,0.0
1404.4575178187577,9073.174507714019,12350.122959848994,7547.221941038817,-6192.734353135923,521.7308459518522,-4532.9728892885005,-20170.107359132075,0.0
1403.7667990544296,9072.62669628024,12349.884780964743,7544.983059526858,-6196.664304726064,518.7536098987143,-4534.985500860421,-20181.74239762774,0.0
1405.4935959652496,9071.888341739063,12351.432943712374,7548.0317492452705,-6193.389345067613,520.3613173674088,-4539.153631334814,-20192.079361204233,0.0
1410.1142663197195,9073.341232932995,12354.600722872912,7552.247515496513,-6187.125240411811,522.8026509309817,-4533.246795005388,-20195.366229806896,0.0
1409.8403606028307,9074.472582633187,12356.232248230031,7552.080790277538,-6188.61385843838,522.1000232224412,-4534.652050422469,-20202.452051613363,0.0
1408.8042824563388,9072.48378894969,12353.612280503272,7547.138578429329,-6195.163777755283,520.2184100368581,-4536.676570938604,-20201.308792968957,0.0
1401.3016476024318,9071.5429823569,12353.016833292644,7547.162396317754,-6193.556070286589,522.3024752740546,-4539.082177669538,-20193.829976003475,0.0
1402.3139078604986,9072.912510941342,12352.99301540422,7548.043658189483,-6192.484265307459,521.3497597370505,-4533.830333271803,-20184.600544238747,0.0
1404.2907925997822,9072.57906050339,12351.790212038752,7546.173953948112,-6196.485670562876,515.2761981886496,-4534.2947820960935,-20175.764107633036,0.0
1407.8039311424845,9073.531776040394,12353.957639885435,7547.436302034644,-6194.985143592095,514.1091216558195,-4536.224031058527,-20170.619443733212,0.0
1406.9822139918185,9069.947183832417,12351.159037995485,7544.375703372018,-6195.997403850161,514.2639379305828,-4538.570093068399,-20177.848172870235,0.0
1406.6963993307174,9072.864875164492,12353.076378013706,7547.5792093651935,-6192.257995367421,521.3021239602002,-4533.9136958812915,-20183.886007585996,0.0
1407.553843314021,9074.925122513263,12355.18426113933,7550.044360817192,-6189.399848756408,521.7903906729149,-4533.758879606528,-20190.638378954514,0.0
1406.6368546096544,9072.221792177015,12351.790212038752,7546.4478596650015,-6195.282867197408,514.2758468747953,-4539.225085000089,-20194.758873652056,0.0
1406.1843147295776,9072.412335284414,12350.932768055447,7546.67412960504,-6193.591797119227,519.3609660535545,-4537.414925479781,-20202.99986304714,0.0
1402.3258168047112,9069.971001720842,12349.02733698144,7544.423339148868,-6195.342411918471,518.6940651776516,-4543.869573242984,-20207.406172405786,0.0
1402.7426298521505,9069.006377239626,12349.039245925653,7544.780607475243,-6195.521046081659,515.0856550812488,-4538.355732072573,-20197.652747095704,0.0
1406.9107603265431,9070.328270047217,12350.43259239852,7545.757140900673,-6194.604057377293,517.9795285248987,-4534.437689426644,-20183.838371809146,0.0
1411.1146176335735,9071.59061813375,12351.480579489225,7547.341030480942,-6192.365175865333,522.5525631025181,-4537.379198647144,-20178.65798107669,0.0
1413.8536748024603,9073.996224864684,12354.183909825475,7549.115463168612,-6190.650287898727,521.3497597370505,-4538.284278407297,-20174.620848988634,0.0
1408.3398336320492,9071.07853353261,12352.11175353249,7545.149784745833,-6195.902132296461,513.3231313377912,-4549.669229074497,-20179.88460233058,0.0
1407.1251213223693,9072.090793790678,12352.945379627368,7546.507404386064,-6193.687068672926,515.8121006782144,-4536.402665221714,-20185.99389071162,0.0
1408.4470141299623,9075.449116058615,12356.17270350897,7551.235255238446,-6186.64888264331,525.0415324429413,-4525.2320755503415,-20196.84293888925,0.0
1409.7927248259805,9074.270130581572,12354.136274048624,7549.115463168612,-6188.685312103656,524.7199909492024,-4531.781994867244,-20201.094431973135,0.0
1407.8872937519725,9073.55559392882,12352.707200743118,7547.42439309043,-6191.329097718842,521.5283939002387,-4534.366235761368,-20199.474815560225,0.0
1406.6606724980797,9071.26907664001,12351.254309549187,7545.55468884906,-6191.853091264194,518.0271643017488,-4537.212473428168,-20202.678321553405,0.0
1408.8757361216142,9072.007431181188,12352.028390923002,7548.674832232748,-6185.827165492643,527.5185928391518,-4535.2355886888845,-20206.965541469923,0.0
1412.1983315569157,9074.293948469998,12351.861665704027,7547.805479305232,-6188.852037322631,525.5774349325061,-4532.353624189448,-20189.757117082783,0.0
1411.8410632305392,9072.281336898077,12349.44415002888,7543.518259388714,-6196.950119387166,514.2401200421576,-4535.295133409947,-20181.69476185089,0.0
1411.055072912511,9071.673980743237,12348.97970120459,7543.327716281313,-6197.045390940865,514.1805753210948,-4536.402665221714,-20179.491607171567,0.0
1406.9822139918185,9070.733174150446,12348.753431264551,7543.113355285486,-6196.199855901775,515.7882827897893,-4535.033136637271,-20184.898267844063,0.0
1406.4582204464662,9072.102702734888,12351.706849429263,7547.28148575988,-6191.876909152619,521.5283939002387,-4528.090222161354,-20190.35256429341,0.0
1406.9345782149685,9070.89989936942,12350.99231277651,7545.661869346973,-6194.532603712018,516.4194568330544,-4540.987608743547,-20199.379544006522,0.0
1404.5408804282456,9069.35173662179,12349.336969530967,7544.363794427805,-6196.735758391339,512.9539540672021,-4550.133677898785,-20204.821931511662,0.0
1403.7787079986424,9069.327918733365,12350.242049291119,7544.94733269422,-6195.556772914298,513.120679286178,-4540.725611970871,-20207.834894397434,0.0
1404.3860641534825,9068.23229586581,12349.58705735943,7545.018786359496,-6194.056245943515,514.9546566949107,-4538.99881506005,-20205.715102327606,0.0
1405.1482365830857,9072.174156400164,12352.683382854691,7546.971853210353,-6192.1150880368705,519.2180587230039,-4535.747673290024,-20196.878665721888,0.0
1405.58886751895,9072.055066958039,12353.112104846345,7547.067124764053,-6191.97218070632,520.3136815905586,-4535.128408190972,-20186.61315581067,0.0
1408.6613751257883,9073.638956538307,12354.791265980315,7550.103905538254,-6189.304577202708,522.9455582615323,-4535.378496019435,-20174.37076116017,0.0
1411.6386111789259,9079.426703425608,12360.269380318088,7556.022650811892,-6180.241870656957,532.3774420778726,-4529.173936084696,-20167.701752401143,0.0
1411.4123412388876,9077.938085399039,12358.185315080891,7554.665031171661,-6180.206143824319,532.6989835716115,-4530.352921561739,-20174.716120542333,0.0
1412.6508714369927,9078.414443167541,12358.45922079778,7553.617044080957,-6186.089162265319,525.0534413871537,-4529.781292239537,-20178.49125585771,0.0
1411.0788908009358,9078.259626892777,12358.078134582978,7550.770806414157,-6191.567276603092,518.2296163533622,-4531.019822437641,-20193.62752395186,0.0
1407.494298592958,9076.03265432503,12355.112807474052,7549.282188387589,-6191.793546543131,518.3367968512752,-4534.818775641445,-20204.667115236898,0.0
1408.5065588510251,9074.377311079486,12353.910004108586,7550.27063075723,-6188.923490987906,520.0516848178825,-4534.580596757195,-20203.59531025777,0.0
1411.4242501831,9069.58991550604,12349.575148415217,7547.090942652479,-6190.697923675576,519.9921400968198,-4538.843998785288,-20202.976045158714,0.0
1413.7941300813975,9070.971353034696,12351.516306321862,7548.793921674874,-6189.78093497121,520.0993205947326,-4534.7830488088075,-20196.807212056618,0.0
1415.3899286058795,9074.841759903775,12355.386713190941,7552.985870037692,-6185.600895552605,524.5770836186517,-4531.05554927028,-20182.49266111313,0.0
1405.7436837937132,9074.008133808898,12354.82699281295,7552.307060217576,-6184.195640135524,525.9347032588826,-4532.9728892885005,-20174.394579048596,0.0
1408.458923074175,9072.519515782327,12353.278830065321,7548.936829005424,-6188.852037322631,519.6348717704432,-4533.258703949601,-20172.560601639863,0.0
1413.282045480258,9073.37695976563,12353.83855044331,7548.770103786449,-6189.12594303952,521.3497597370505,-4533.6516991086155,-20176.597733727915,0.0
1415.961557928082,9078.092901673801,12357.518414204987,7552.807235874503,-6184.838723123002,527.3399586759635,-4529.971835346937,-20182.075848065688,0.0
1412.2340583895534,9076.59237470302,12356.077431955271,7551.723521951161,-6185.648531329454,525.5417080998684,-4532.794255125312,-20191.424369272543,0.0
1411.531430681013,9073.69850125937,12353.695643112758,7549.603729881327,-6185.696167106305,525.9942479799453,-4531.115093991342,-20197.414568211454,0.0
1406.3629488927659,9073.93668014362,12354.35063504445,7549.568003048689,-6186.958515192836,526.2086089757712,-4527.828225388678,-20201.427882411084,0.0
1406.4224936138287,9076.532829981958,12357.006329603848,7551.497252011123,-6187.54205345925,528.1616758266296,-4523.302826587909,-20194.187244329853,0.0
1410.25717365027,9073.93668014362,12353.433646340083,7547.817388249445,-6189.423666644833,521.8618443381902,-4536.890931934429,-20191.662548156793,0.0
1413.067684484432,9073.424595542481,12352.540475524142,7548.162747631608,-6188.089864893028,520.1588653157954,-4539.403719163278,-20181.444674022423,0.0
1415.4852001595798,9075.437207114403,12354.029093550711,7551.53297884376,-6184.445727963987,529.4597507457976,-4528.5546709856435,-20171.98897231766,0.0
1409.5188191090917,9079.02179932238,12357.113510101763,7553.5455904156815,-6183.421558761707,529.0429376983584,-4530.341012617526,-20166.57040270095,0.0
1409.7331801049177,9078.938436712893,12356.994420659636,7551.032803186833,-6188.911582043694,518.6583383450139,-4538.677273566312,-20176.645369504768,0.0
1411.9958795053024,9078.533532609667,12358.935578566281,7553.414592029343,-6185.553259775755,526.7683293537611,-4528.030677440291,-20181.27794880345,0.0
1412.0673331705777,9079.605337588797,12361.007734859266,7555.117571051738,-6181.93294073514,532.0916274167714,-4523.63627702586,-20189.673754473297,0.0
1412.9247771538815,9080.581871014225,12361.126824301391,7555.998832923467,-6182.576023722616,526.7921472421862,-4526.041883756796,-20199.165183010697,0.0
1413.4011349223836,9080.891503563753,12359.62629733061,7555.320023103352,-6183.004745714269,527.7924985560405,-4523.4219160300345,-20203.59531025777,0.0
1414.6753919531263,9080.415145795248,12356.696697054322,7552.688146432378,-6185.62471344103,524.172179515425,-4527.220869233838,-20201.22543035947,0.0
1413.19868287077,9077.4260007979,12354.67217653819,7550.115814482468,-6187.86359495299,520.5161336421719,-4533.604063331765,-20193.00825885281,0.0
1407.2323018202821,9069.863821222929,12348.3247092729,7543.113355285486,-6194.270606939342,517.1935382068702,-4536.116850560613,-20192.85344257805,0.0
1409.852269547043,9069.947183832417,12347.931714113885,7542.684633293835,-6195.354320862683,517.014904043682,-4532.496531519998,-20186.339250093784,0.0
1412.2102405011283,9071.066624588397,12349.658511024705,7544.089888710916,-6193.222619848637,517.2054471510828,-4539.475172828553,-20178.598436355624,0.0
1405.9223179569015,9069.744731780804,12348.765340208764,7543.208626839188,-6193.436980844463,515.9192811761272,-4540.725611970871,-20179.45588033893,0.0
1406.3748578369784,9068.637199969036,12347.741171006484,7541.636646203131,-6196.390399009176,513.0015898440523,-4536.366938389077,-20192.400902697973,0.0
1407.6729327561463,9067.386760826717,12346.97899857688,7539.5763988543595,-6197.009664108228,512.3942336892123,-4537.772193806158,-20202.44014266915,0.0
1408.1850173572861,9070.459268433557,12349.813327299467,7543.17290000655,-6193.067803573874,516.9672682668319,-4537.617377531395,-20206.465365812994,0.0
1407.494298592958,9071.74543440851,12350.635044450133,7544.208978153041,-6192.436629530609,517.2292650395079,-4536.557481496478,-20212.94383146462,0.0
1412.1387868358531,9076.16365271137,12353.767096778036,7547.031397931416,-6189.054489374244,518.7536098987143,-4534.914047195146,-20211.824390708643,0.0
1413.222500759195,9076.378013707195,12352.087935644066,7545.518962016423,-6190.971829392465,518.4916131260383,-4533.663608052828,-20205.060110395912,0.0
1417.974169500003,9077.9976301201,12353.362192674807,7547.662571974682,-6188.518586884679,521.8261175055526,-4533.091978730626,-20192.126996981082,0.0
1409.197277615353,9077.830904901126,12354.35063504445,7550.437355976206,-6184.398092187137,527.4590481180891,-4530.960277716578,-20185.1245377841,0.0
1412.0911510590029,9075.199028230152,12353.183558511619,7548.853466395936,-6186.184433819019,525.1606218850668,-4532.627529906335,-20182.21875539624,0.0
1413.1510470939197,9070.685538373597,12350.146777737418,7543.613530942414,-6193.198801960212,513.5851281104673,-4536.56939044069,-20188.089864893027,0.0
1412.6389624927804,9075.437207114403,12356.958693826999,7551.401980457422,-6185.25553617044,522.2191126645666,-4527.935405886591,-20191.305279830416,0.0
1410.9002566377478,9075.65156811023,12356.827695440661,7552.152243942814,-6183.874098641784,524.5770836186517,-4533.211068172751,-20202.463960557576,0.0
1407.017940824456,9074.174859027873,12354.707903370825,7548.841557451724,-6188.673403159443,521.4093044581133,-4535.033136637271,-20210.621587343172,0.0
1407.3275733739824,9077.223548746286,12356.934875938574,7550.83035113522,-6186.0772533211075,524.517538897589,-4538.236642630447,-20214.229997439576,0.0
1409.5426369975169,9078.223900060138,12358.328222411441,7552.676237488165,-6183.29056037537,527.4114123412388,-4529.781292239537,-20212.205476923442,0.0
1410.733531418772,9074.686943629013,12355.541529465705,7548.913011116999,-6189.042580430032,518.3844326281254,-4532.722801460037,-20205.79846493709,0.0
1406.7916708844177,9070.89989936942,12351.254309549187,7545.1616936900455,-6193.174984071787,516.7648162152184,-4532.877617734799,-20193.829976003475,0.0
1405.672230128438,9070.125817995606,12349.598966303643,7543.637348830839,-6194.044336999304,516.1693690045909,-4536.42648311014,-20187.232420909724,0.0
1408.5661035720877,9071.328621361074,12351.492488433438,7547.055215819842,-6187.970775450903,521.5045760118137,-4530.210014231188,-20184.957812565128,0.0
1409.2091865595655,9072.221792177015,12352.230842974615,7548.853466395936,-6185.600895552605,523.6839128027104,-4531.4247265408685,-20187.601598180314,0.0
1410.6620777534968,9073.114962992957,12352.95728857158,7549.044009503337,-6184.7434515693,521.8975711708279,-4534.652050422469,-20190.67410578715,0.0
1410.7692582514096,9069.91145699978,12348.967792260377,7543.041901620212,-6193.413162956038,515.3238339654998,-4535.545221238411,-20202.630685776552,0.0
1409.69745327228,9072.1146116791,12350.444501342734,7544.363794427805,-6192.924896243323,517.3364455374208,-4532.567985185273,-20207.501443959485,0.0
1408.1016547477982,9074.031951697321,12353.42173739587,7548.793921674874,-6186.636973699096,522.314384218267,-4530.805461441816,-20208.50179527334,0.0
1406.6963993307174,9072.364699507563,12352.016481978791,7548.615287511685,-6185.457988222054,520.5161336421719,-4531.496180206143,-20204.607570515836,0.0
1408.3398336320492,9074.06767852996,12351.790212038752,7547.900750858932,-6188.1851364467275,519.4205107746174,-4532.008264807283,-20200.689527869905,0.0
1409.5783638301548,9074.520218410038,12352.171298253552,7545.04260424792,-6193.794249170839,516.4432747214795,-4533.877969048654,-20186.64888264331,0.0
1407.6372059235086,9073.341232932995,12352.266569807254,7544.852061140519,-6193.615615007651,515.5381949613256,-4532.698983571611,-20182.802293662655,0.0
1409.6140906627923,9073.424595542481,12351.909301480877,7544.685335921544,-6192.448538474821,516.0026437856152,-4531.996355863071,-20181.730488683526,0.0
1411.8053363979016,9076.020745380818,12354.564996040277,7549.1273721128255,-6187.673051845588,520.0516848178825,-4536.676570938604,-20183.05238149112,0.0
1414.1513984077742,9076.437558428257,12354.934173310865,7548.436653348497,-6188.018411227752,518.765518842927,-4542.40477310484,-20188.24468116779,0.0
1416.938091353511,9079.938788026748,12357.708957312389,7551.866429281712,-6183.088108323756,527.6019554486396,-4532.794255125312,-20193.246437737063,0.0
1410.1976289292072,9079.486248146672,12356.791968608022,7552.235606552301,-6184.517181629262,522.7550151541315,-4534.997409804633,-20199.784448109753,0.0
1411.2456160199117,9082.356303701896,12361.055370636117,7555.96310609083,-6180.241870656957,525.446436546168,-4529.340661303672,-20208.04925539326,0.0
1404.1955210460817,9077.75945123585,12357.75659308924,7552.711964320803,-6183.350105096432,523.9459095753865,-4530.055197956425,-20208.823336767076,0.0
1406.2557683948528,9078.521623665454,12358.494947630417,7551.652068285885,-6184.957812565127,523.4100070858218,-4530.3291036733135,-20204.035941193633,0.0
1408.0778368593733,9078.628804163367,12358.161497192465,7552.723873265016,-6182.26639117309,526.3276984178967,-4532.032082695709,-20194.794600484693,0.0
1410.5429883113711,9079.85542541726,12359.269029004234,7553.140686312455,-6181.778124460376,526.0895195336457,-4526.506332581084,-20186.243978540082,0.0
1406.1366789527274,9076.175561655582,12355.458166856219,7548.341381794797,-6188.316134833066,516.9315414341942,-4530.07901584485,-20187.375328240276,0.0
1406.3391310043407,9076.437558428257,12356.36324661637,7549.5441851602645,-6185.172173560953,522.3739289393299,-4528.20931160348,-20190.1501122418,0.0
1414.7349366741892,9081.844219100756,12362.067630894184,7555.713018262366,-6178.586527411412,530.3171947291013,-4517.395990258483,-20191.210008276717,0.0
1410.9598013588104,9078.259626892777,12357.423142651287,7550.901804800495,-6184.231366968162,522.0166606129534,-4525.887067482032,-20199.462906616012,0.0
1402.0161842551847,9074.865577792201,12354.95799119929,7548.948737949637,-6185.529441887329,521.3973955139006,-4533.556427554915,-20210.883584115847,0.0
1404.1121584365937,9076.187470599793,12355.18426113933,7550.27063075723,-6183.8860075859975,523.9816364080242,-4533.663608052828,-20215.087441422882,0.0
1407.506207537171,9078.902709880254,12357.1492369344,7552.056972389112,-6182.611750555255,524.041181129087,-4533.508791778065,-20209.132969316604,0.0
1407.256119708707,9079.71251808671,12357.94713619664,7554.069583961034,-6180.1108722706185,525.4940723230181,-4530.567282557565,-20202.94031832608,0.0
1408.5065588510251,9079.307613983483,12357.768502033452,7551.235255238446,-6182.873747327931,526.4706057484474,-4528.125948993992,-20191.543458714666,0.0
1409.69745327228,9077.961903287465,12355.886888847868,7546.924217433503,-6189.22121459322,521.0877629643743,-4531.400908652443,-20181.50421874349,0.0
1410.9955281914483,9079.641064421432,12358.637854960969,7551.032803186833,-6183.254833542732,526.3872431389595,-4528.757123037257,-20177.264634603816,0.0
1412.4722372738045,9078.188173227503,12358.173406136679,7551.830702449074,-6182.7903847184425,525.553617044081,-4526.673057800061,-20187.1133314676,0.0
1413.3773170339582,9080.069786413085,12357.923318308214,7551.187619461597,-6184.326638521861,521.4212134023257,-4526.804056186399,-20194.901780982607,0.0
1413.4844975318713,9078.307262669628,12354.3982708213,7548.49619806956,-6184.398092187137,522.528745214093,-4528.483217320368,-20199.712994444475,0.0
1405.6245943515878,9073.305506100356,12350.861314390173,7546.507404386064,-6187.994593339327,521.2068524064998,-4527.780589611828,-20214.277633216425,0.0
1404.9338755872598,9072.733876778155,12351.159037995485,7544.43524809308,-6192.043634371595,514.9427477506981,-4530.650645167052,-20218.850667794046,0.0
1408.8400092889765,9075.175210341726,12353.695643112758,7547.210032094605,-6186.994242025473,521.2068524064998,-4526.875509851674,-20213.69409495001,0.0
1406.0771342316646,9075.37766239334,12352.731018631543,7547.448210978855,-6186.220160651657,523.4814607510971,-4528.483217320368,-20212.94383146462,0.0
1407.4109359834704,9074.174859027873,12350.480228175371,7544.149433431979,-6189.757117082785,521.0877629643743,-4533.699334885465,-20206.977450414135,0.0
1408.8757361216142,9073.817590701496,12351.980755146153,7545.102148968983,-6189.626118696447,520.3136815905586,-4533.234886061176,-20198.37919269267,0.0
1410.25717365027,9072.459971061266,12353.016833292644,7546.828945879803,-6187.006150969685,521.5283939002387,-4531.960629030434,-20192.03172542738,0.0
1405.0648739735977,9069.054013016475,12350.575499729071,7543.280080504463,-6191.36482455148,514.8236583085727,-4535.44994968471,-20200.60616526042,0.0
1414.758754562614,9076.473285260894,12357.208781655463,7550.008633984554,-6184.326638521861,523.112283480508,-4529.51929546686,-20205.83419176973,0.0
1409.8879963796808,9076.437558428257,12356.160794564757,7548.841557451724,-6187.518235570826,521.3021239602002,-4530.17428739855,-20215.968703294606,0.0
1410.2690825944826,9077.104459304159,12356.637152333258,7549.984816096129,-6185.791438660005,522.4096557719674,-4527.399503397026,-20222.06608273143,0.0
1404.7909682567092,9075.961200659754,12355.56534735413,7548.889193228574,-6185.422261389416,522.9574672057449,-4525.77988698412,-20231.116880332975,0.0
1400.289387344365,9074.627398907951,12352.766745464181,7546.686038549252,-6187.637325012951,520.0397758736699,-4529.8408369605995,-20230.926337225574,0.0
1405.2315991925734,9079.295705039269,12356.756241775385,7550.496900697269,-6183.94555230706,523.6839128027104,-4529.781292239537,-20219.35084345097,0.0
1409.304458113266,9080.438963683675,12359.090394841045,7553.093050535605,-6181.087405696048,525.7560690956943,-4533.0681608422,-20202.880773605015,0.0
1410.0904484312941,9076.628101535658,12357.006329603848,7551.890247170137,-6181.742397627739,523.5052786395222,-4530.376739450165,-20198.522100023223,0.0
1410.709713530347,9074.567854186887,12355.874979903656,7550.961349521558,-6180.218052768531,527.435230229664,-4530.567282557565,-20195.914041240674,0.0
1413.7584032487598,9074.508309465824,12355.767799405743,7550.199177091955,-6180.53959426227,527.0541440148623,-4535.545221238411,-20198.18864958527,0.0
1415.9258310954442,9072.055066958039,12352.659564966269,7544.804425363669,-6188.137500669878,517.6937138637974,-4543.309852864994,-20202.976045158714,0.0
1416.568914082922,9079.62915547722,12358.566401295693,7550.556445418331,-6184.683906848238,518.1700716322995,-4537.152928707105,-20208.144526946962,0.0
1407.1965749876445,9079.688700198283,12357.25641743231,7550.282539701442,-6186.422612703271,519.0632424482407,-4529.555022299498,-20219.4699328931,0.0
1409.1020060616527,9078.438261055966,12356.375155560583,7550.520718585693,-6183.38583192907,524.0649990175122,-4527.566228616002,-20223.12597876635,0.0
1411.662429067351,9077.19973085786,12356.458518170071,7549.05591844755,-6184.850632067214,520.7781304148481,-4532.210716858897,-20224.531234183432,0.0
1410.4477167576708,9077.104459304159,12357.708957312389,7549.484640439202,-6184.5529084619,521.5403028444514,-4530.352921561739,-20217.326322934838,0.0
1406.6487635538672,9072.662423112879,12353.338374786383,7545.530870960635,-6187.363419296062,518.765518842927,-4532.353624189448,-20213.491642898396,0.0
1409.5783638301548,9072.614787336028,12352.600020245205,7545.530870960635,-6187.196694077086,518.6226115123764,-4534.497234147707,-20206.87026991622,0.0
1411.5552485694382,9073.126871937167,12353.147831678983,7545.483235183784,-6186.898970471773,520.2660458137083,-4532.734710404249,-20200.32035059932,0.0
1408.7209198468508,9075.318117672277,12354.314908211813,7545.995319784924,-6186.3392500937825,519.5634181051679,-4528.078313217142,-20203.11895248927,0.0
1410.3286273155454,9073.436504486694,12352.67147391048,7544.125615543554,-6190.126294353374,514.335391595858,-4532.901435623225,-20213.372553456273,0.0
1411.7100648442013,9074.806033071138,12354.005275662286,7546.566949107127,-6186.505975312759,517.8366211943479,-4536.271666835377,-20219.410388172037,0.0
1407.0536676570937,9074.353493191062,12353.481282116933,7546.30495233445,-6186.053435432682,517.7532585848602,-4535.033136637271,-20225.376769222526,0.0
1409.8760874354684,9078.17626428329,12356.422791337434,7547.603027253618,-6186.1129801537445,518.7774277871395,-4529.304934471034,-20229.497263920064,0.0
1406.14858789694,9075.020394066965,12353.016833292644,7545.006877415282,-6187.780232343502,516.0264616740403,-4532.1749900262585,-20234.106025330322,0.0
1407.3275733739824,9077.092550359946,12355.196170083542,7547.817388249445,-6183.981279139697,520.194592148433,-4535.080772414121,-20228.556457327275,0.0
1407.661023811934,9080.260329520484,12357.363597930225,7549.782364044516,-6184.6362710713875,523.3028265879088,-4530.245741063826,-20214.229997439576,0.0
1409.4235475553915,9078.78362043813,12355.33907741409,7547.686389863106,-6187.458690849762,520.754312526423,-4535.092681358335,-20208.299343221726,0.0
1410.0070858218064,9075.437207114403,12352.838199129455,7546.614584883977,-6186.958515192836,519.2061497787914,-4538.99881506005,-20204.274120077884,0.0
1411.9720616168772,9077.140186136798,12355.89879779208,7549.389368885501,-6183.7311913112335,520.0993205947326,-4531.8415395883085,-20203.27376876403,0.0
1413.5916780297844,9081.165409280638,12360.936281193992,7552.1403349986,-6182.897565216355,517.2530829279331,-4536.56939044069,-20209.58550919668,0.0
1409.5902727743671,9076.997278806248,12356.922966994362,7546.936126377716,-6188.1136827814535,514.5021168148337,-4535.295133409947,-20228.9613614305,0.0
1407.6491148677214,9079.10516193187,12358.542583407267,7550.306357589868,-6184.1837311913105,519.5396002167428,-4533.342066559089,-20236.10672795803,0.0
1410.5906240882214,9084.654729934917,12363.580066809178,7555.665382485516,-6179.0509762357015,523.4457339184594,-4530.841188274453,-20239.63177544495,0.0
1410.8645298051101,9084.095009556926,12362.66307810481,7552.056972389112,-6183.89791653021,518.6821562334391,-4536.42648311014,-20238.357518414206,0.0
1412.8890503212438,9087.012700889001,12365.818948321135,7555.760654039216,-6177.919626535509,525.470254434593,-4534.437689426644,-20228.461185773573,0.0
1412.8056877117558,9087.167517163765,12366.354850810701,7558.4878022638895,-6174.692302653908,528.86430353517,-4532.3298063010225,-20213.110556683598,0.0
1413.9608553003734,9088.703770967184,12366.53348497389,7558.761707980779,-6177.478995599645,525.5059812672308,-4533.115796619051,-20199.843992830814,0.0
1415.211294442691,9090.847380925443,12365.330681608422,7558.059080272238,-6176.978819942718,525.8751585378197,-4529.340661303672,-20199.2604545644,0.0
1416.5212783060717,9093.110080325829,12367.807742004632,7560.4885048915985,-6172.632055305137,529.316843415247,-4524.624719395502,-20202.678321553405,0.0
1420.6298640594018,9089.132492958837,12367.807742004632,7559.785877183058,-6174.799483151822,526.5658773021478,-4525.803704872544,-20206.45345686878,0.0
1420.8323161110152,9081.62985810493,12363.341887924926,7555.96310609083,-6178.919977849364,523.4219160300344,-4527.6138643928525,-20219.565204446797,0.0
1413.4606796434462,9080.272238464699,12361.460274739342,7553.652770913594,-6180.277597489595,522.1357500550789,-4531.186547656617,-20227.067839300707,0.0
1413.282045480258,9079.700609142497,12360.412287648638,7552.723873265016,-6178.610345299838,526.3634252505344,-4528.5189441530065,-20235.582734412677,0.0
1413.4249528108085,9082.082397985007,12362.353445555284,7555.5820198760275,-6173.406136678952,532.7823461810992,-4519.932595375756,-20230.30707212652,0.0
1413.3177723128956,9079.331431871908,12359.793022549586,7552.330878106001,-6178.25307697346,526.8159651306113,-4524.2912689575505,-20227.40128973866,0.0
1411.2575249641243,9076.556647870384,12355.386713190941,7547.519664644131,-6184.683906848238,522.1952947761416,-4527.435230229664,-20216.171155346223,0.0
1414.6277561762763,9077.56890812845,12355.839253071019,7549.341733108651,-6182.361662726791,525.3511649924676,-4523.469551806885,-20206.405821091932,0.0
1419.8915095182235,9078.771711493917,12357.708957312389,7551.48534306691,-6179.039067291489,526.4110610273846,-4525.92279431467,-20198.629280521134,0.0
1418.0098963326404,9078.795529382342,12358.375858188292,7552.152243942814,-6177.121727273268,530.6982809439029,-4529.626475964773,-20204.012123305205,0.0
1413.305863368683,9077.628452849513,12355.696345740469,7548.222292352671,-6182.421207447854,523.1241924247206,-4532.889526679012,-20215.218439809218,0.0
1411.6386111789259,9074.72267046165,12352.183207197764,7544.566246479419,-6186.422612703271,514.4306631495584,-4534.390053649794,-20226.222304261613,0.0
1412.1387868358531,9072.495697893903,12350.754133892258,7544.387612316229,-6184.5529084619,517.122084541595,-4531.781994867244,-20236.10672795803,0.0
1410.7454403629845,9074.127223251024,12352.683382854691,7546.828945879803,-6180.134690159044,524.5413567860141,-4528.7452140930445,-20240.441583651398,0.0
1413.4725885876587,9076.509012093533,12354.314908211813,7547.3529394251555,-6184.279002745012,520.9091288011862,-4531.317546042956,-20237.285713435074,0.0
1417.9146247789402,9083.761559118975,12361.519819460405,7553.831405076782,-6178.931886793576,525.0177145545161,-4525.220166606129,-20226.80584252803,0.0
1414.472939901513,9080.820049898475,12359.709659940097,7552.318969161789,-6179.515425059992,525.6965243746316,-4524.791444614478,-20214.742082040717,0.0
1409.149641838503,9074.472582633187,12354.946082255077,7547.00758004299,-6184.445727963987,521.9571158918906,-4526.3276984178965,-20205.774647048664,0.0
1413.734585360335,9078.652622051792,12359.673933107459,7552.187970775451,-6178.919977849364,527.2565960664757,-4525.660797541994,-20197.509839765156,0.0
1414.4491220130878,9080.772414121626,12361.103006412966,7555.844016648704,-6175.121024645559,530.7935524976033,-4521.6474833423645,-20204.095485914695,0.0
1409.5426369975169,9081.415497109103,12361.769907288868,7556.082195532955,-6174.3350343275315,530.0671069006377,-4518.87269934084,-20217.23105138114,0.0
1407.792022198272,9080.522326293161,12359.316664781083,7552.366604938638,-6176.80018577953,528.7690319814697,-4521.2068524065,-20228.66363782519,0.0
1409.3163670574784,9083.332837127324,12361.436456850919,7550.937531633133,-6179.122429900977,525.9704300915201,-4522.850286707832,-20234.308477381936,0.0
1412.2102405011283,9083.523380234725,12362.496352885833,7551.711613006949,-6178.5269826903495,524.8152625029028,-4524.612810451289,-20235.880458017993,0.0
1409.2330044479907,9079.85542541726,12359.971656712774,7550.663625916244,-6179.670241334754,524.2079063480627,-4526.542059413723,-20231.593238101475,0.0
1408.4827409625998,9081.510768662805,12360.84100964029,7551.116165796321,-6182.07584806569,523.6124591374352,-4528.983392977295,-20231.104971388762,0.0
1412.2936031106162,9084.130736389565,12361.781816233082,7553.474136750407,-6179.97987388428,526.0895195336457,-4527.149415568562,-20218.529126300306,0.0
1415.3661107174541,9079.831607528835,12358.73312651467,7552.390422827064,-6178.848524184088,528.4474904877308,-4525.803704872544,-20211.895844373914,0.0
1412.6746893254178,9075.854020161842,12355.791617294168,7547.93647769157,-6183.3977408732835,523.9101827427489,-4529.1977539731215,-20209.66887180617,0.0
1414.0918536867114,9076.03265432503,12358.006680917704,7549.222643666526,-6180.95640730971,526.029974812583,-4527.50668389494,-20210.216683239945,0.0
1415.8424684859563,9080.546144181588,12362.484443941621,7554.18867340316,-6173.799131837966,531.6033607040567,-4519.62296282623,-20218.243311639206,0.0
1411.2456160199117,9081.498859718591,12362.353445555284,7552.509512269189,-6177.8481728702345,526.3038805294716,-4521.5760296770895,-20231.497966547773,0.0
1410.0309037102315,9082.606391530358,12362.329627666859,7553.438409917768,-6178.050624921847,526.9350545727368,-4521.9094801150395,-20238.79814935007,0.0
1414.3895772920253,9085.166814536056,12364.973413282045,7557.106364735234,-6173.191775683127,529.5073865226478,-4519.0036977271775,-20238.33370052578,0.0
1418.47434515693,9087.774873318607,12367.307566347707,7558.594982761803,-6172.6916000262,530.9960045492167,-4516.336094223567,-20231.164516109824,0.0
1417.0571807956364,9085.309721866608,12364.830505951495,7556.070286588742,-6175.764107633037,529.0072108657207,-4520.123138483157,-20228.223006889322,0.0
1413.4487706992336,9079.783971751984,12359.11421272947,7549.448913606564,-6183.266742486945,521.2663971275626,-4526.851691963249,-20222.863981993676,0.0
