EEG 1,EEG 2,EEG 3,EEG 4,EEG 5,EEG 6,EEG 7,EEG 8,Trigger
-198.66500735377306,10423.482056198307,14132.082100261401,11959.71204172894,-2639.962844094057,1235.850685657463,642.4041776576298,-24293.853198444693,0.0
-198.03383331050784,10423.434420421458,14132.320279145652,11962.129557404089,-2640.856014909998,1231.5158299640946,642.1183629965286,-24283.31378281658,0.0
-199.97499121715364,10420.064189209306,14128.366509667085,11957.47316021698,-2645.0836901054536,1225.9543530168332,635.6518062891133,-24295.71099374185,0.0
-199.67726761183988,10422.42216016339,14128.926230045075,11952.959670360424,-2649.5138173525224,1224.9182748703413,639.9628440940568,-24315.70611107472,0.0
-200.97534253100793,10422.981880541382,14129.783674028378,11954.269654223803,-2647.417843171114,1226.0138977378958,639.5460310466176,-24343.418224257326,0.0
-201.89233123537431,10422.898517931892,14130.200487075817,11955.389094979784,-2646.905758569974,1224.5729154881774,634.28227770467,-24362.01999511733,0.0
-201.72560601639861,10421.266992574772,14129.0453194872,11956.77053250844,-2646.7152154625733,1222.5841218046814,627.3869990056031,-24370.713524392493,0.0
-200.02262699400384,10422.314979665478,14131.200838389672,11959.092776629888,-2644.869329109628,1220.869233838074,624.7432133904168,-24356.69669705432,0.0
-201.11824986155852,10420.719181140996,14128.890503212437,11957.19925450009,-2645.643410483444,1218.9518938198535,624.4931255619532,-24329.973026241358,0.0
-200.8086173120322,10420.361912814618,14130.784025342233,11959.450044956264,-2644.4286981737637,1219.094801150404,621.5754342298784,-24297.94987525381,0.0
-198.2124674736961,10419.433015166042,14130.81975217487,11961.033934536532,-2641.8444572796398,1218.8685312103655,614.823062861362,-24271.893105316747,0.0
-199.2366366759755,10417.360858873057,14129.22395365039,11958.687872526662,-2642.49944921133,1218.380264497651,618.6458339535908,-24269.1897749805,0.0
-199.08182040121233,10420.576273810446,14130.391030183218,11957.18734555588,-2643.7856151862857,1219.225799536742,628.7208007574088,-24286.588742475033,0.0
-196.90248361031553,10420.50482014517,14129.97421713578,11956.877713006354,-2644.893146998053,1219.30916214623,624.6360328925039,-24308.012933113412,0.0
-197.8551991473196,10420.052280265094,14130.152851298966,11958.580692028749,-2644.7621486117146,1219.96415407792,622.1589724962932,-24329.92539046451,0.0
-199.10563828963743,10423.005698429806,14131.963010819276,11960.902936150194,-2642.189816661804,1222.2983071435801,622.7544197069209,-24343.501586866816,0.0
-198.54591791164754,10422.874700043469,14131.891557154,11961.057752424958,-2641.38000845535,1223.2391137363718,622.2423351057812,-24345.180748000785,0.0
-198.7960057401111,10419.456833054464,14130.271940741093,11960.426578381694,-2641.7491857259397,1222.1077640361793,623.4808653038864,-24333.65289000304,0.0
-199.4748155602265,10418.635115903799,14131.319927831797,11960.331306827993,-2643.4164379156964,1220.869233838074,620.5512650275989,-24314.372309322916,0.0
-198.6530984095605,10418.516026461673,14131.486653050773,11958.723599359299,-2645.44095843183,1220.8335070054366,620.9918959634633,-24289.64934113766,0.0
-196.21176484598757,10418.301665465848,14129.22395365039,11957.437433384344,-2645.464776320255,1221.7147688771652,621.2896195687772,-24265.486093330393,0.0
-193.9014296687527,10420.933542136821,14132.820454802579,11961.9509232409,-2640.6654718025975,1227.8597840908415,626.7915517949756,-24251.242996052184,0.0
-194.52069476780537,10419.885555046118,14133.546900399546,11965.440243895177,-2636.306798220804,1233.278353707552,630.3285082261032,-24264.592922514454,0.0
-195.41386558374666,10416.146146563375,14129.59313092098,11959.843040115278,-2641.5110068416884,1227.3000637128516,626.06510619801,-24289.053893927034,0.0
-194.8303273173317,10414.06208132618,14126.937436361579,11952.745309364596,-2649.3947279103973,1219.9284272452824,623.9572230723885,-24315.277389083072,0.0
-195.1161419784329,10415.181522082159,14129.914672414716,11955.520093366124,-2649.1089132492957,1220.2261508505965,623.3379579733358,-24339.33345639242,0.0
-195.2114135321333,10413.54999672504,14128.961956877713,11957.294526053793,-2646.1674040287958,1220.6667817864607,624.1358572355767,-24346.752728636842,0.0
-196.22367379020014,10411.763655093158,14127.699608791183,11956.794350396865,-2646.0959503635204,1220.8215980612238,623.3736848059735,-24334.60560554004,0.0
-194.37778743725474,10411.787472981583,14127.592428293268,11957.270708165368,-2644.3691534527006,1222.5483949720438,621.9922472773176,-24313.36004906485,0.0
-192.75817102434783,10411.704110372095,14127.794880344883,11956.413264182063,-2646.00067880982,1219.678339416819,619.1579185547305,-24284.778582954725,0.0
-193.32980034655026,10412.168559196385,14129.533586199914,11958.044789539183,-2645.0360543286038,1219.225799536742,619.7295478769329,-24261.87768323399,0.0
-195.56868185850985,10409.548591469622,14126.961254250004,11956.794350396865,-2647.0724837889497,1214.104953525345,610.7621128848822,-24254.196414216894,0.0
-195.44959241638432,10409.95349557285,14126.675439588904,11956.627625177889,-2646.953394346824,1212.9616948809403,607.3561548400927,-24263.628298033236,0.0
-193.24643773706242,10413.180819454452,14129.009592654562,11957.544613882257,-2646.3103113593465,1216.6415586426185,610.5239340006311,-24285.469301719055,0.0
-195.98549490594908,10410.13212973604,14127.116070524768,11955.9726332462,-2646.9891211794616,1217.106007466908,612.1435504135382,-24309.82309263372,0.0
-198.4030105810969,10405.416187827868,14124.710463793832,11954.650740438605,-2647.7393846648524,1214.3074055769584,609.3687664120137,-24321.231861189342,0.0
-198.36728374845927,10408.643511709468,14125.365455725523,11954.674558327031,-2649.59717996201,1212.759242829327,610.7740218290947,-24324.875998118387,0.0
-196.06885751543697,10407.690796172465,14124.88909795702,11953.948112730066,-2650.228354005276,1214.188316134833,611.2027438207466,-24313.074234403746,0.0
-194.4373321583175,10403.546483586497,14122.531127002934,11952.161771098183,-2652.0742403582212,1212.8545143830272,609.7260347383902,-24291.102232331592,0.0
-193.04398568544906,10402.962945320083,14121.733227740693,11953.0311240257,-2650.537986554802,1214.7837633454606,609.547400575202,-24267.200981297003,0.0
-193.6394328960766,10399.235445781555,14119.399074675035,11952.304678428734,-2649.787723069411,1215.2958479466001,611.298015374447,-24245.312341834335,0.0
-192.51999214009683,10398.2350944677,14119.184713679208,11950.55406362949,-2651.7765167529074,1213.5571420915678,611.6195568681859,-24234.117934274534,0.0
-194.54451265623047,10398.723361180415,14119.458619396097,11950.613608350552,-2652.598233903573,1212.9616948809403,607.4395174495804,-24245.205161336424,0.0
-198.188649585271,10399.044902674153,14118.982261627594,11950.565972573702,-2654.0034893206544,1212.2471582281873,606.1890783072627,-24267.641612232866,0.0
-200.18935221297954,10397.532466759158,14118.458268082242,11951.161419784328,-2652.0504224697956,1212.4734281682256,604.271738289042,-24290.24478834829,0.0
-198.2124674736961,10396.841747994831,14120.256518658338,11950.637426238976,-2652.4910534056603,1213.973955139007,611.536194258698,-24308.382110384006,0.0
-197.09302671771633,10394.495685984959,14119.089442125507,11949.11308137977,-2653.955853543804,1214.7599454570354,609.8332152363032,-24317.61154214873,0.0
-194.37778743725474,10394.888681143973,14118.470177026455,11951.733049106531,-2651.0024353790914,1215.891295157228,606.7130718526149,-24303.27317331682,0.0
-194.0205191108782,10400.414431258596,14122.114313955495,11958.818870912999,-2646.0244966982455,1216.41528870258,606.4987108567889,-24277.32358387767,0.0
-194.5326037120179,10397.282378930695,14117.529370433664,11950.923240900078,-2654.563209698644,1208.5196586896589,604.3670098427424,-24254.6727719854,0.0
-194.40160532567984,10393.75733144378,14114.671223822652,11947.398193413163,-2653.6224031058528,1209.5081010593005,605.7246294829732,-24235.642279133743,0.0
-193.6632507845017,10392.185350807724,14116.398020733472,11949.077354547131,-2653.015046951012,1210.4608165963048,601.5684079527929,-24227.901465395586,0.0
-194.0919727761535,10390.196557124227,14116.290840235559,11947.3386486921,-2655.4682894587977,1209.281831119262,600.2107883125622,-24239.786591719712,0.0
-195.3543208626839,10391.923354035047,14119.029897404445,11949.72043753461,-2653.824855157466,1211.13962641642,602.973663369874,-24261.24650919073,0.0
-197.39075032303012,10389.112843200886,14114.302046552062,11945.433217618092,-2660.398592362794,1207.352582156829,609.3568574678012,-24288.10117839003,0.0
-197.25975193669206,10388.279217106006,14114.040049779387,11949.506076538784,-2655.8374667293874,1207.8646667579685,601.5684079527929,-24301.30819752175,0.0
-197.42647715566775,10387.195503182666,14114.575952268951,11950.732697792677,-2652.9674111741624,1204.5301623784544,587.0037691808433,-24305.94077682043,0.0
-197.47411293251795,10388.124400831244,14116.886287446185,11950.04197902835,-2656.635365991628,1200.457303457762,593.7561405493595,-24291.114141275804,0.0
-197.81947231468192,10384.551717567478,14114.135321333088,11947.410102357375,-2658.6717954519745,1204.1848029962905,600.8538713000398,-24272.107466312573,0.0
-197.1763893272042,10383.241733704099,14110.824634841998,11944.230414252625,-2660.3866834185815,1204.9350664816811,600.2822419778374,-24251.183451331122,0.0
-198.49828213479734,10380.990943247925,14107.93076139835,11941.229360311061,-2663.5068268022696,1201.3028384968532,595.6972984560055,-24232.629316247967,0.0
-198.534008967435,10381.681662012254,14108.288029724725,11939.002387743314,-2666.7579685722962,1199.3378627017821,593.7680494935721,-24216.468878951535,0.0
-196.98584621980336,10382.467652330282,14108.978748489051,11938.490303142175,-2667.948862993551,1199.8142204702842,594.8755813053394,-24222.637712053638,0.0
-195.2352314205584,10383.777636193663,14110.64600067881,11942.52743523023,-2663.7092788538835,1200.6121197325251,592.9939681197563,-24240.48921942825,0.0
-195.2352314205584,10386.09988031511,14114.3377733847,11946.945653533086,-2659.9222345942917,1201.433836883191,596.3761082761207,-24262.878034547844,0.0
-196.06885751543697,10387.195503182666,14116.374202845045,11949.422713929298,-2656.099463502063,1205.1017917006568,602.0924014981453,-24281.2416265236,0.0
-200.43944004144313,10380.895671694225,14110.51500229247,11943.754056484122,-2661.8157567240874,1197.003709636122,585.9081463132885,-24292.745666632924,0.0
-205.34592505701406,10372.130688753788,14101.011664810856,11935.084345097384,-2670.6641022740127,1188.6436307989115,580.2275799239019,-24288.18454099952,0.0
-206.70354469724487,10370.08235034923,14098.153518199842,11931.690295996808,-2672.676713845934,1190.513335040282,582.2878272726731,-24270.071036852227,0.0
-205.9890080444918,10367.224203738217,14095.605004138357,11929.356142931148,-2674.2010587051404,1188.2982714167476,578.9056871163087,-24249.13511292656,0.0
-201.73751496061115,10370.534890229306,14099.761225668539,11933.786270178216,-2671.7597251415677,1189.905978885442,581.4065654009444,-24231.962415372065,0.0
-198.1171959199957,10375.26274108169,14105.406065225288,11940.252826885631,-2665.3169863225776,1191.9543172900005,582.6927313758998,-24216.63560417051,0.0
-199.72490338869008,10373.666942557207,14103.857902477655,11939.836013838194,-2666.3768823574947,1191.8590457363002,580.5133945850031,-24224.507416295008,0.0
-203.61912814619419,10367.438564734044,14098.034428757717,11934.381717388846,-2672.4028081290453,1187.2383753818303,577.5004316992276,-24245.538611774373,0.0
-207.203720354172,10362.496352885833,14094.890467485604,11930.189769026027,-2676.8805711529644,1182.4152529757473,567.627916947023,-24272.786276132687,0.0
-205.27447139173876,10363.401432645987,14096.795898559612,11932.095200100033,-2674.7607790831303,1186.9168338880918,579.0605033910718,-24287.6962742868,0.0
-202.85695571659096,10366.72402808129,14099.618318337987,11935.120071930023,-2672.4147170732576,1187.2026485491929,577.8815179140292,-24293.817471612052,0.0
-201.33261085738442,10365.509315771611,14099.058597959996,11935.01289143211,-2672.37899024062,1188.7508112968244,573.4752085553855,-24280.30081993081,0.0
-199.355726118101,10365.163956389446,14099.356321565312,11937.025503004032,-2667.2224173965856,1193.3357548186566,576.6548966601366,-24253.21988079147,0.0
-199.66535866762732,10362.162902447883,14095.319189477257,11932.666829422238,-2672.33135446377,1186.0712988490006,576.5834429948612,-24226.127032707915,0.0
-200.2012611571921,10360.781464919228,14094.485563382377,11931.27348294937,-2675.034684800019,1182.1770740914963,573.0345776195212,-24207.10844880047,0.0
-200.61807420463137,10361.007734859266,14097.24843843969,11933.679089680303,-2673.903335099827,1182.558160306298,569.5333480210312,-24195.890223352246,0.0
-198.83173257274876,10365.199683222083,14099.284867900036,11935.29870609321,-2672.617169124871,1184.177776719205,572.2604962457053,-24201.070614084707,0.0
-198.20055852948357,10363.770609916577,14094.902376429818,11930.963850399841,-2676.308941830762,1184.332592993968,573.6657516627863,-24226.317575815316,0.0
-200.61807420463137,10359.16184850632,14090.829517509124,11926.61708576226,-2681.739420391685,1180.8432723396907,574.6422850882155,-24253.94632638843,0.0
-200.65380103726903,10359.388118446359,14092.520587587307,11929.022692493198,-2678.2620086816205,1182.2485277567719,574.999553414592,-24271.130932887143,0.0
-202.13051011962534,10359.20948428317,14093.568574678011,11929.725320201736,-2677.4760183635917,1181.1171780565794,571.3911433181892,-24282.849333992293,0.0
-204.05975908205858,10356.327519783734,14091.782233046128,11929.64195759225,-2679.0003632227986,1180.783727618628,567.6755527238732,-24273.083999738003,0.0
-203.4524029272185,10355.982160401569,14091.675052548215,11929.344233986936,-2678.452551789021,1181.7245342114195,567.1991949553712,-24249.230384480263,0.0
-200.45134898565567,10356.256066118458,14093.127943742147,11930.701853627166,-2676.5233028265875,1181.8793504861826,567.1039234016707,-24223.56660970222,0.0
-199.0341846243621,10355.112807474052,14092.520587587307,11933.738634401367,-2672.033630858456,1183.8562352254662,569.5333480210312,-24201.320701913173,0.0
-199.15327406648763,10354.338726100237,14090.698519122787,11932.059473267398,-2675.689676731709,1182.5462513620855,568.7592666472153,-24190.245383795496,0.0
-201.88042229116178,10352.564293412566,14089.019357988816,11927.557892355053,-2679.6791730429136,1178.7830249909193,564.4601377864846,-24204.11930380312,0.0
-201.72560601639861,10354.660267593976,14092.02041193038,11928.963147772134,-2677.9404671878815,1180.8432723396907,563.3526059747172,-24223.20934137584,0.0
-202.22578167332574,10355.410531079368,14094.390291828677,11931.297300837794,-2678.0595566300067,1182.0698935935834,565.1984923276626,-24245.967333766024,0.0
-204.45275424107274,10352.504748691505,14092.937400634746,11929.117964046898,-2683.2637652508915,1176.806140251636,561.7806253386607,-24263.509208591113,0.0
-207.79916756479955,10348.3247092729,14089.757712529994,11926.319362156948,-2684.8952906080112,1172.721372386731,556.1953305029742,-24272.619550913714,0.0
-208.95433515341696,10345.609469992438,14086.732840700008,11925.25946612203,-2685.562191483914,1172.3641040603545,556.2906020566746,-24260.150886323172,0.0
-206.21527798453027,10344.859206507048,14085.256131617652,11923.651758653337,-2687.8487087727235,1171.2208454159497,554.7067124764054,-24235.844731185356,0.0
-203.96448752835818,10347.443447401169,14086.208847154654,11924.711654688252,-2687.5390762231978,1172.185469897166,559.8156495435896,-24210.049958020973,0.0
-203.2975866524553,10346.586003417866,14084.100964029034,11922.699043116332,-2689.111056859254,1171.6972031844516,557.7196753621807,-24191.26955299778,0.0
-203.71439969989459,10345.752377322988,14082.802889109866,11921.662964969839,-2688.5632454254765,1171.8877462918524,556.1596036703365,-24185.874801269492,0.0
-203.23804193139256,10348.824884929827,14086.316027652567,11924.628292078765,-2689.0276942497662,1168.005430478561,549.3715054691826,-24198.27201219476,0.0
-202.97604515871646,10351.159037995485,14090.543702848023,11928.546334724693,-2688.0749787127625,1167.1122596626196,547.3827117856866,-24219.74383860999,0.0
-204.71475101374887,10344.430484515395,14088.590635997165,11928.403427394143,-2685.717007758677,1172.352195116142,552.5511935739337,-24247.837038007394,0.0
-205.71510232760312,10339.952721491476,14086.208847154654,11926.09309221691,-2687.9916161032743,1171.5662047981136,555.3855222965208,-24263.64020697745,0.0
-205.34592505701406,10339.988448324113,14085.946850381979,11924.640201022978,-2689.9327740099197,1171.077938085399,553.9921758236522,-24267.677339065503,0.0
-204.34557374315978,10341.88197045391,14088.56681810874,11926.950536200213,-2688.098796601187,1172.9000065499192,554.0517205447151,-24253.243698679893,0.0
-203.95257858414564,10339.333456392424,14085.494310501903,11923.520760266998,-2692.5765596251063,1170.2443119905204,549.8478632376847,-24233.975026943986,0.0
-203.79776230938245,10339.547817388247,14084.327233969072,11923.449306601722,-2690.4091317784223,1173.9003578637737,552.4797399086583,-24210.240501128374,0.0
-203.0117719913541,10339.571635276674,14083.743695702658,11924.890288851442,-2688.0749787127625,1175.5199742766804,551.9081105864559,-24189.614209752235,0.0
-201.71369707218605,10341.048344359031,14087.375923687485,11925.271375066242,-2691.6952977533774,1168.0411573111985,546.4657230813202,-24180.646774760182,0.0
-202.8212288839533,10341.381794796982,14088.721634383503,11927.141079307614,-2689.6707772372442,1168.3150630280873,547.2040776224984,-24190.48356267975,0.0
-203.76203547674479,10339.381092169273,14084.50586813226,11922.937222000583,-2694.8273500812784,1168.4341524702127,548.6569688164295,-24212.169750090805,0.0
-203.333313485093,10338.833280735496,14084.053328252183,11923.925664370227,-2695.2560720729302,1166.5049035077795,546.0608189780935,-24233.06994718383,0.0
-202.8450467723784,10337.511387927902,14084.339142913284,11924.461566859789,-2694.779714304428,1166.409631954079,544.7865619473505,-24247.94421850531,0.0
-200.14171643612934,10339.13100434081,14086.351754485206,11926.867173590725,-2692.719466955657,1168.636604521826,546.1441815875813,-24251.016726112146,0.0
-200.2250790456172,10339.559726332462,14086.93529275162,11927.021989865487,-2691.5285725344015,1169.9823152178444,546.2394531412817,-24240.23913159979,0.0
-199.87971966345324,10338.821371791284,14086.542297592607,11924.723563632466,-2695.2203452402928,1167.398074323721,542.8573129849173,-24219.589022335225,0.0
-203.1070435450545,10333.128896457685,14081.588176800185,11922.198867459405,-2695.708611953007,1166.5763571730547,543.5003959723952,-24194.41351426989,0.0
-202.1424190638379,10330.12784251612,14079.682745726177,11922.627589451058,-2695.375161515056,1165.8141847434515,539.6776248801661,-24176.073740182565,0.0
-199.89162860766578,10332.41435980493,14080.516371821057,11921.293787699251,-2697.5664072501654,1165.3378269749494,539.1179045021764,-24170.476536402664,0.0
-202.22578167332574,10333.545709505124,14082.12407928975,11921.174698257126,-2699.0192984440964,1165.2663733096742,543.0597650365307,-24180.07514543798,0.0
-203.5476744809189,10332.426268749143,14080.218648215741,11917.530561328085,-2702.973067922663,1162.0628673164981,539.6418980475286,-24201.070614084707,0.0
-201.88042229116178,10331.759367873241,14079.50411156299,11917.590106049147,-2701.7107198361327,1164.3612935495203,540.1063468718181,-24222.4114421136,0.0
-201.86851334694921,10331.414008491076,14080.040014052554,11918.471367920876,-2701.627357226645,1165.1830107001863,550.8839413841766,-24235.797095408507,0.0
-203.61912814619419,10330.663745005686,14080.480644988418,11918.483276865089,-2701.65117511507,1166.516812451992,549.6454111860713,-24246.27696631555,0.0
-204.52420790634804,10327.531692677785,14078.372761862798,11916.827933619545,-2703.759058240692,1165.456916417075,542.2261389416522,-24240.465401539826,0.0
-202.88077360501606,10327.007699132433,14078.43230658386,11917.316200332258,-2703.437516746953,1163.9563894462935,543.6671211913708,-24219.553295502585,0.0
-202.20196378490064,10327.900869948375,14079.063480627125,11917.554379216512,-2702.627708540499,1166.5882661172675,548.299700490053,-24195.830678631184,0.0
-200.7133457583318,10328.936948094866,14079.635109949328,11918.804818358829,-2701.913171887746,1165.6355505802633,544.3935667883363,-24173.894403391667,0.0
-200.79670836781963,10329.853936799234,14079.670836781965,11920.567342102286,-2700.638914857003,1165.0162854812106,542.0236868900388,-24163.152535711946,0.0
-202.73786627446543,10328.936948094866,14077.78922359638,11919.054906187292,-2703.1755199742765,1162.6702234713382,542.416682049053,-24174.573213211785,0.0
-201.33261085738442,10327.626964231486,14079.051571682912,11920.626886823347,-2702.4133475446733,1160.1455272982773,536.9623855997046,-24198.01001542208,0.0
-201.65415235112332,10327.674600008337,14080.171012438892,11921.079426703425,-2702.8182516479,1156.4894814250242,536.5693904406905,-24221.35154607868,0.0
-205.08392828433793,10325.030814393149,14075.371707921233,11916.923205173245,-2705.307220988323,1154.345871466765,527.0898708475,-24241.00130402939,0.0
-204.91720306536223,10321.481949017809,14071.191668502628,11915.82758230569,-2703.759058240692,1157.3826522409656,526.3872431389595,-24249.254202368687,0.0
-201.49933607636015,10322.637116606427,14074.121268778916,11920.067166445358,-2701.4249051750317,1157.7875563441924,529.7693832953239,-24237.011807718187,0.0
-201.18970352683382,10320.684049755568,14073.382914237738,11915.339315592975,-2704.9618616061593,1153.845695809838,521.5283939002387,-24215.099350367094,0.0
-201.28497508053422,10321.100862803007,14076.324423458238,11916.446847404743,-2703.6042419659284,1154.036238917239,527.1375066243502,-24189.066398318457,0.0
-199.62963183498965,10319.254976450064,14075.72897624761,11916.018125413091,-2706.057484473714,1153.6670616466497,526.2919715852591,-24166.141680709297,0.0
-200.05835382664148,10318.25462513621,14074.03790616943,11913.58870079373,-2709.844528733305,1150.1539231039471,517.8961659154107,-24156.090531793903,0.0
-203.63103709040675,10316.801733942277,14071.799024657468,11913.755426012705,-2710.273250724957,1149.1059360132426,514.5735704801091,-24167.84465973169,0.0
-202.1186011754128,10316.67073555594,14072.18011087227,11914.017422785382,-2707.4508309465823,1154.3339625225526,525.6727064862065,-24188.554313717315,0.0
-202.4282337249391,10313.574410060675,14070.346133463538,11910.099380139452,-2711.416509369362,1150.5945540398116,525.1368039966417,-24213.444007121547,0.0
-203.1308614334796,10311.049713887614,14068.202523505277,11908.563126336034,-2715.2273715173783,1146.9265992223459,519.8373238220565,-24237.011807718187,0.0
-202.7735931071031,10314.419945099768,14071.263122167904,11912.338261651412,-2713.7506624350217,1149.6894742796576,523.2909176436963,-24244.157174245716,0.0
-202.7974109955282,10317.373363264478,14072.799375971323,11913.421975574754,-2712.1667728547527,1150.689825593512,525.6488885977814,-24227.329836073382,0.0
-201.01106936364556,10317.254273822353,14074.740533877968,11914.577143163373,-2710.451884888145,1149.6656563912327,523.3147355321214,-24205.727011271818,0.0
-200.77289047939453,10313.764953168076,14074.466628161079,11915.470313979315,-2708.9275400289384,1154.6435950720788,526.8993277400992,-24179.813148665304,0.0
-201.51124502057272,10311.002078110763,14070.560494459363,11912.993253583103,-2710.1898881154693,1155.4772211669574,525.553617044081,-24157.722057151022,0.0
-200.7371636467569,10312.050065201469,14070.191317188774,11910.956824122757,-2713.202851001244,1151.8092663494917,524.7199909492024,-24149.540612477,0.0
-199.3795440065261,10313.08614334796,14072.620741808136,11914.767686270772,-2708.4750001488615,1154.4054161878278,526.827874074824,-24158.912951572278,0.0
-200.74907259096943,10313.038507571111,14072.513561310223,11916.06576118994,-2708.4750001488615,1153.7027884792874,527.304231843326,-24179.253428287313,0.0
-202.13051011962534,10311.395073269778,14071.286940056329,11913.672063403219,-2709.844528733305,1154.32205357834,526.1490642547085,-24204.798113623234,0.0
-202.60686788812737,10309.489642195771,14068.702699162206,11911.43318189126,-2712.5835859021918,1150.451646709261,522.7550151541315,-24225.55540338571,0.0
-199.99880910557874,10307.322214349086,14068.309704003192,11914.255601669633,-2709.8802555659427,1150.7017345377246,524.2436331807004,-24227.103566133344,0.0
-197.35502349039245,10305.392965386653,14068.02388934209,11913.731608124283,-2710.1541612828314,1151.3329085809896,523.5052786395222,-24211.39566871699,0.0
-197.21211615984183,10308.977557594631,14071.001125395227,11911.71899655236,-2713.643481937109,1148.8439392405667,521.7070280634271,-24193.0916214623,0.0
-198.3791926926718,10308.060568890265,14069.881684639247,11908.979939383475,-2718.0259734073275,1144.1875420534593,519.003697727178,-24170.3217201279,0.0
-200.05835382664148,10305.297693832952,14068.964695934881,11910.016017529966,-2717.0375310376858,1144.4257209377104,518.4677952376131,-24150.409965404517,0.0
-201.47551818793502,10306.250409369957,14068.845606492756,11911.20691195122,-2715.548913011117,1147.0695065528967,520.8257661916982,-24143.205054155922,0.0
-199.85590177502814,10307.357941181725,14070.334224519325,11913.71969918007,-2712.893218451718,1149.308388064856,523.3147355321214,-24152.208215980612,0.0
-199.08182040121233,10306.953037078498,14070.143681411924,11913.934060175894,-2713.2981225549447,1149.9871978849715,523.6005501932226,-24174.966208370795,0.0
-196.15222012492484,10310.108907294823,14072.847011748174,11915.82758230569,-2711.666597197825,1151.725903740004,528.2093116034797,-24193.782340226626,0.0
-195.22332247634586,10310.704354505451,14072.45401658916,11914.648596828647,-2713.774480323447,1146.045337350617,522.8026509309817,-24209.502146587194,0.0
-197.8551991473196,10308.251111997666,14068.845606492756,11911.67136077551,-2716.894623707135,1142.520289863702,516.431365777267,-24216.01633907146,0.0
-204.04785013784604,10304.16634413276,14064.594113408875,11906.872056257851,-2722.444191710184,1136.8635413627405,508.07128694005627,-24208.31125216594,0.0
-206.2510048171679,10297.818876867472,14058.925455963701,11902.144205405468,-2725.814422922336,1131.5164254113051,508.72627887174656,-24190.70983261979,0.0
-204.54802579477317,10299.819579495179,14061.878874128413,11904.216361698453,-2723.9328097367525,1135.4940127782972,507.03520879356444,-24163.759891866786,0.0
-200.32035059931763,10301.808373178676,14065.999368825956,11908.956121495048,-2719.5384093223215,1140.3766799054429,518.4082505165504,-24142.597698001082,0.0
-199.2842724528257,10300.355481984745,14066.463817650245,11909.956472808903,-2718.466604343192,1142.6870150826778,519.3133302767043,-24134.27334599651,0.0
-200.72525470254433,10301.748828457612,14068.142978784215,11910.063653306815,-2719.3002304380707,1142.3178378120888,512.2751442470868,-24146.349015428033,0.0
-202.22578167332574,10299.902942104669,14064.868019125764,11907.920043348557,-2721.158025735228,1140.936400283433,514.5378436474715,-24170.428900625815,0.0
-202.58304999970227,10299.700490053054,14064.701293906788,11908.96803043926,-2719.014415776969,1143.5801858986192,515.133290858099,-24197.962379645232,0.0
-203.04749882399176,10297.902239476958,14064.344025580413,11909.110937769812,-2719.9552223697606,1141.7223906014613,508.8334593696596,-24216.528423672597,0.0
-202.2376906175383,10299.128860730852,14065.308650061628,11910.92109729012,-2718.466604343192,1140.4481335707183,511.11997665846934,-24217.088144050587,0.0
-202.1424190638379,10300.093485212068,14064.439297134113,11910.611464740594,-2718.1331539052403,1143.2467354606677,517.14590243002,-24205.28638033595,0.0
-199.82017494239048,10300.212574654193,14062.069417235814,11904.704628411168,-2724.7307089989936,1139.6740521969025,516.8005430478561,-24185.029266230402,0.0
-196.73575839133983,10298.962135511876,14060.211621938657,11903.906729148928,-2723.897082904115,1140.614858789694,514.4663899821961,-24158.329413305863,0.0
-195.98549490594908,10296.842343442042,14059.330360066928,11905.026169904906,-2721.6582013921557,1141.6152101035482,513.8947606599936,-24139.060741569956,0.0
-198.0695601431455,10296.389803561964,14060.949976479835,11905.812160222935,-2723.7779934619894,1138.4236130545846,512.7038662387386,-24128.187875503896,0.0
-197.41456821145522,10294.246193603705,14058.556278693111,11904.466449526917,-2724.2900780631294,1139.4120554242265,512.6324125734633,-24137.429216212833,0.0
-198.03383331050784,10291.245139662142,14054.793052321947,11902.894468890861,-2725.1951578232834,1137.7924390113194,513.6565817757427,-24161.53291929904,0.0
-200.14171643612934,10288.839532931208,14053.661702621754,11899.726689730322,-2728.053304434295,1133.6600353695644,512.4299605218499,-24187.565871347677,0.0
-198.90318623802406,10292.25739992021,14059.747173114367,11905.46680084077,-2723.7779934619894,1136.4824551479387,514.8593851412103,-24202.737866274463,0.0
-198.27201219475887,10295.29418069441,14064.046301975099,11906.66960420624,-2724.48062117053,1137.1612649680542,514.680750978022,-24206.643999976182,0.0
-199.5224513370767,10293.948469998391,14063.72476048136,11905.478709784984,-2726.0406928623743,1136.4824551479387,514.0257590463317,-24196.604760005,0.0
-201.58269868584802,10292.340762529699,14061.95032779369,11903.978182814202,-2726.874318957253,1135.8870079373114,513.5851281104673,-24173.501408232652,0.0
-200.96343358679536,10292.519396692885,14061.188155364085,11903.990091758415,-2726.9338636783154,1134.0173036959407,509.1192740307608,-24148.61171482842,0.0
-196.28321851126287,10295.448996969173,14063.12931327073,11905.526345561833,-2725.731060312848,1133.7076711464147,511.393882375358,-24131.403290441285,0.0
-195.17568669949566,10295.556177467088,14062.688682334867,11905.442982952347,-2728.4939353701598,1129.6705390583597,508.9763667002102,-24120.44706176574,0.0
-197.77183653783172,10293.162479680363,14060.163986161808,11905.049987793333,-2728.529662202797,1132.3738693946086,507.09475351462714,-24133.10626946368,0.0
-200.28462376667997,10294.186648882642,14063.558035262384,11907.443685580054,-2725.5286082612342,1137.1731739122667,510.03626273512725,-24150.85059634038,0.0
-199.24854562018805,10295.139364419647,14062.962588051756,11906.764875759938,-2724.8617073853316,1137.1493560238418,512.6443215176758,-24173.02505046415,0.0
-197.35502349039245,10295.782447407126,14062.271869287428,11907.789044962217,-2724.182897565216,1137.8877105650197,514.895111973848,-24190.543107400812,0.0
-196.92630149874063,10292.197855199147,14060.580799209245,11908.158222232807,-2723.92090079254,1140.7339482318196,516.2408226698662,-24198.581644744285,0.0
-198.43873741373457,10287.49382223519,14056.924753335992,11903.894820204714,-2726.8505010688277,1138.8046992693862,514.5378436474715,-24187.92313967405,0.0
-200.15362538034188,10288.220267832156,14058.532460804687,11903.216010384598,-2727.7555808289812,1133.8386695327524,504.59387522999145,-24162.914356827696,0.0
-199.73681233290264,10288.958622373333,14060.949976479835,11907.693773408519,-2723.1230015302995,1133.4099475411006,509.94099118142685,-24141.79979873884,0.0
-197.49793082094305,10292.67421296765,14063.879576756122,11910.385194800554,-2722.206012825933,1137.3637170196675,513.8471248831435,-24122.376310728174,0.0
-195.378138751109,10290.94741605683,14062.688682334867,11909.051393048749,-2724.1471707325786,1139.1381497073378,514.0019411579067,-24113.623236731946,0.0
-195.94976807331145,10288.958622373333,14059.794808891216,11906.872056257851,-2726.183600192925,1138.6498829946229,509.4408155244997,-24125.841813494026,0.0
-198.3553748042467,10288.827623986994,14058.282372976222,11905.383438231283,-2726.600413240364,1135.6131022204227,502.2597221643315,-24146.908735806024,0.0
-197.52174870936815,10288.089269445816,14057.389202160282,11904.537903192193,-2727.314949893117,1132.8025913862605,502.1168148337809,-24171.357798274392,0.0
-196.83102994504023,10289.530251695536,14057.829833096146,11904.252088531091,-2728.7082963659855,1133.5528548716513,511.26288398901994,-24188.554313717315,0.0
-197.71229181676898,10289.399253309197,14058.556278693111,11906.074156995612,-2727.291132004692,1136.3633657058133,514.8236583085727,-24196.84293888925,0.0
-199.66535866762732,10288.506082493257,14057.067660666544,11904.787991020656,-2730.292185946255,1133.3265849316128,510.84607094158065,-24187.387237184485,0.0
-199.96308227294108,10288.48226460483,14058.711094967875,11906.3480627125,-2728.3153012069715,1132.7549556094102,504.5105126205037,-24165.91541076926,0.0
-197.29547876932972,10287.648638509952,14060.068714608105,11907.348414026355,-2725.969239197099,1135.2081981171957,508.33328371273245,-24140.251635991208,0.0
-196.0093127943742,10286.124293650746,14056.698483395954,11903.382735603574,-2729.9230086756656,1131.4568806902423,505.3084118827445,-24119.14898684657,0.0
-196.40230795338837,10284.861945564217,14054.554873437695,11900.869948374726,-2733.150332557267,1128.9440934613942,508.7858235928094,-24110.08628030082,0.0
-199.20090984333785,10283.43287225871,14053.45925057014,11899.679053953472,-2733.436147218368,1131.0162497543781,512.0607832512609,-24123.96020030844,0.0
-199.5462692255018,10285.493119607481,14055.412317420998,11900.476953215713,-2733.579054548919,1131.2663375828415,510.2387147867405,-24147.25409518819,0.0
-198.1171959199957,10286.32674570236,14056.996207001268,11901.965571242281,-2732.864517896166,1132.0999636777203,510.0600806235523,-24168.594923217082,0.0
-198.31964797160907,10284.13549996725,14055.983946743201,11904.680810522743,-2729.7205566240527,1132.7430466651979,508.07128694005627,-24186.577428978035,0.0
-197.75992759361918,10284.492768293625,14056.055400408477,11904.883262574356,-2732.09043652235,1125.2404118112909,507.39247711994096,-24189.221214593217,0.0
-198.12910486420827,10287.053191299325,14056.519849232765,11904.073454367903,-2732.364342239239,1129.265634955133,506.1658558660482,-24179.78933077688,0.0
-196.39039900917584,10288.684716656446,14058.603914469963,11905.943158609274,-2727.648400331069,1135.7560095509732,507.45202184100367,-24162.24745595179,0.0
-195.3543208626839,10285.028670783191,14057.567836323471,11905.776433390298,-2727.1244067857165,1134.7318403486938,509.9052643487891,-24136.166868126304,0.0
-195.87831440803615,10281.51553224049,14056.698483395954,11901.477304529568,-2733.0907878362045,1130.5518009300886,511.42960920799567,-24115.350033642768,0.0
-194.19915327406648,10279.955460548645,14053.959426227068,11898.714429472255,-2736.9850125937087,1126.800483503135,509.59563179926283,-24102.714643833253,0.0
-194.2229711624916,10281.75371112474,14055.698132082101,11901.608302915905,-2734.912856300725,1128.8607308519063,508.58337154119596,-24113.551783066672,0.0
-195.94976807331145,10283.051786043909,14056.841390726506,11903.763821818377,-2732.2809796297506,1131.385427024967,508.8334593696596,-24134.713976932373,0.0
-197.80756337046938,10281.229717579388,14054.81687021037,11901.894117577005,-2733.8767781542324,1129.8372642773356,510.8222530531555,-24158.627136911175,0.0
-198.3553748042467,10278.371570968375,14050.970281229718,11899.035970965993,-2736.6634710999697,1127.5864738211633,509.0835471981231,-24175.049570980285,0.0
-198.15292275263337,10280.943902918287,14051.399003221368,11900.072049112487,-2736.2228401641055,1130.0278073847364,513.2754955609411,-24182.063939121475,0.0
-196.44994373023857,10280.110276823409,14050.291471409602,11897.606897660487,-2738.1282712381135,1130.170714715287,512.2870531912993,-24171.083892557504,0.0
-193.84188494768995,10278.609749852627,14050.708284457041,11897.999892819502,-2736.7468337094574,1129.7300837794223,510.17917006567785,-24148.37353594417,0.0
-192.43662953060897,10276.918679774444,14053.066255411126,11899.738598674534,-2735.1629441291884,1128.5630072465926,510.08389851197745,-24121.62604724278,0.0
-191.3171887746292,10277.347401766097,14053.45925057014,11899.952959670361,-2735.2582156828885,1129.8253553331228,511.40579131957054,-24100.987846922428,0.0
-193.12734829493692,10278.466842522077,14052.875712303727,11900.596042657839,-2736.282384885168,1130.063534217374,507.63065600419196,-24093.354213682185,0.0
-194.8541452057568,10276.370868340668,14048.350313502955,11896.404094295021,-2740.414788526923,1123.9304279479102,500.4852894766614,-24108.061759784687,0.0
-193.00825885281142,10277.240221268183,14048.517038721931,11897.761713935251,-2736.675380044182,1128.2295568086413,508.29755688009476,-24126.079992378276,0.0
-192.90107835489843,10275.965964237439,14049.767477864249,11900.810403653664,-2736.4491101041435,1126.5146688420336,507.71401861367974,-24151.58895088156,0.0
-195.44959241638432,10274.548799876145,14051.256095890818,11901.965571242281,-2736.091841777767,1126.133582627232,505.2607761058943,-24169.29755092562,0.0
-196.90248361031553,10273.798536390756,14050.75592023389,11900.28641010831,-2737.6876403022493,1126.8957550568352,508.1665584937568,-24174.27548960647,0.0
-196.60476000500174,10273.596084339142,14048.719490773545,11893.665037126133,-2745.6666329246577,1124.6449646006633,511.1080677142568,-24162.580906389743,0.0
-195.52104608165965,10273.655629060204,14048.076407786066,11893.474494018734,-2745.273637765644,1124.4901483259,508.0831958842689,-24140.382634377547,0.0
-196.44994373023857,10273.500812785443,14047.659594738629,11894.820204714752,-2743.665930296949,1124.1805157763738,509.2264545286737,-24114.480680715253,0.0
-196.12840223649974,10271.98837687045,14045.551711613007,11895.820556028604,-2742.141585437743,1123.4897970120458,510.17917006567785,-24096.36717656796,0.0
-194.12769960879118,10270.78557350498,14044.860992848679,11894.713024216839,-2742.355946433569,1121.0603723926856,507.17811612411504,-24086.482752871543,0.0
-193.37743612340046,10269.654223804788,14042.991288607307,11891.46188244681,-2745.333182486707,1121.0008276716226,505.2131403290441,-24095.533550473083,0.0
-194.1396085530037,10270.487849899666,14044.706176573916,11892.938591529168,-2745.02354993718,1122.8109871919305,509.0001845886353,-24116.505201231386,0.0
-196.16412906913737,10266.974711356965,14043.09846910522,11890.71161896142,-2749.608493459012,1117.2971460215194,502.9028051518092,-24143.32414359805,0.0
-196.0093127943742,10265.105007115595,14041.990937293454,11889.985173364455,-2749.263134076848,1117.4995980731328,498.7108567889914,-24159.99666549562,0.0
-195.77113391012318,10268.082243168732,14042.324387731405,11889.62790503808,-2748.298509595632,1118.345133112224,505.3917744922324,-24163.40262354041,0.0
-195.46150136059688,10268.16560577822,14043.979730976951,11889.830357089691,-2749.775218677988,1118.8572177133635,508.24992110324456,-24156.423982231856,0.0
-197.77183653783172,10266.319719425273,14041.383581138614,11888.210740676785,-2750.2515764464897,1119.6551169756046,508.5952804854086,-24139.50137250582,0.0
-196.62857789342684,10268.248968387708,14041.312127473338,11887.877290238834,-2754.443524809308,1114.4985441315698,500.4852894766614,-24112.80151958128,0.0
-196.34276323232564,10265.498002274608,14039.82350944677,11889.746994480205,-2749.8228544548383,1113.355285487165,492.2323911373637,-24090.591338624872,0.0
-196.96202833137826,10263.151940264735,14041.4669437481,11891.68815238685,-2748.2151469861437,1114.6771782947583,501.47373184630317,-24082.755253333016,0.0
-197.34311454617992,10265.938633210473,14045.88516205096,11893.891307066171,-2747.9174233808303,1118.2141347258857,506.2968542523862,-24091.13915005865,0.0
-199.3319082296759,10265.045462394532,14043.8368236464,11894.462936388374,-2744.9044604950545,1123.5969775099588,512.0965100838985,-24113.563692010885,0.0
-201.66606129533585,10262.997123989971,14039.990234665745,11888.984822050601,-2749.3107698536987,1119.9647495251309,507.77356333474256,-24144.110133916078,0.0
-202.20196378490064,10260.805878254863,14040.24032249421,11887.615293466157,-2751.9069196920345,1116.8684240298676,506.0229485354976,-24163.950434974184,0.0
-199.78444810975284,10262.389767835133,14042.34820561983,11890.604438463508,-2751.3829261466826,1116.7374256435296,505.4751371017202,-24162.997719437182,0.0
-197.04539094086613,10264.319016797566,14044.658540797065,11893.545947684008,-2748.846321029409,1119.035851876552,506.95184618407654,-24151.898583431088,0.0
-195.65204446799768,10264.211836299653,14043.08656016101,11893.55785662822,-2750.3230301117655,1116.3206125960903,507.09475351462714,-24133.52308251112,0.0
-197.1049356619289,10262.747036161509,14040.454683490034,11891.021251510947,-2750.9899309876682,1116.0705247676267,507.78547227895507,-24109.121655819603,0.0
-197.30738771354225,10263.985566359614,14043.038924384158,11892.56941425858,-2748.929683638897,1115.8442548275882,504.474785787866,-24089.019357988815,0.0
-198.10528697578314,10263.8783858617,14043.37237482211,11891.938240215313,-2750.334939055978,1114.129366860981,502.033452224293,-24081.123727975893,0.0
-198.2362853621212,10263.116213432098,14040.62140870901,11889.139638325365,-2752.8239083964013,1114.6176335736955,504.08179062885176,-24095.616913082573,0.0
-198.61737157692284,10263.020941878398,14039.561512674094,11888.591826891587,-2752.919179950102,1115.082082397985,505.4036834364449,-24117.57700621051,0.0
-201.18970352683382,10261.663322238168,14040.573772932159,11887.377114581906,-2756.0750501664274,1113.069470826064,502.96234987287204,-24140.608904317585,0.0
-201.84469545852411,10263.711660642724,14044.77763023919,11892.581323202792,-2749.882399175901,1117.785412734234,507.44011289679116,-24157.28142621516,0.0
-200.77289047939453,10265.950542154686,14045.706527887769,11893.867489177746,-2746.14299069316,1122.8348050803556,511.84642225543496,-24162.735722664507,0.0
-200.02262699400384,10264.402379407053,14043.69391631585,11891.235612506773,-2748.9654104715346,1123.2039823509447,512.3704158007872,-24149.74306452861,0.0
-199.98690016136618,10262.544584109895,14043.32473904526,11890.85452629197,-2750.5850268844415,1118.476131498562,504.6176931184166,-24127.806789289094,0.0
-199.4986334486516,10264.652467235517,14044.622813964426,11888.270285397846,-2756.4680453254414,1109.4729696738736,499.78266176812093,-24107.94267034256,0.0
-197.58129343043092,10270.797482449194,14048.64803710827,11894.641570551561,-2750.2634853907025,1117.0589671372684,513.6684907199552,-24089.471897868894,0.0
-197.62892920728112,10270.606939341791,14047.945409399728,11897.6188066047,-2746.70271107115,1122.0726326507522,515.37146974235,-24079.83756200094,0.0
-198.426828469522,10269.630405916363,14048.46940294508,11899.190787240757,-2744.201832786514,1122.132177371815,512.2632353028741,-24090.769972788064,0.0
-199.22472773176295,10270.142490517503,14052.327900869948,11902.799197337159,-2742.7132147599455,1122.7633514150803,509.0359114212729,-24109.824283528145,0.0
-199.6415407792022,10269.785222191127,14053.113891187977,11904.323542196365,-2740.6172405785364,1126.7409387820724,517.0982666531698,-24131.534288827625,0.0
-199.02227568014956,10272.56000619265,14056.150671962178,11907.181688807379,-2735.675028730328,1130.5637098743011,521.4212134023257,-24147.95672289673,0.0
-197.91474386838235,10274.09625999607,14057.365384271856,11906.717239983089,-2735.353487236589,1131.123430252291,520.5280425863846,-24153.56583562084,0.0
-197.62892920728112,10273.881899000244,14057.84174204036,11903.954364925778,-2741.879588665067,1129.0036381824568,519.7539612125687,-24141.418712524042,0.0
-197.31929665775482,10270.583121453368,14053.756974175454,11899.190787240757,-2746.512167963749,1127.5507469885256,521.1115808527994,-24122.88839532931,0.0
-197.89092597995725,10265.426548609332,14046.980784918513,11893.83176234511,-2749.4774950726746,1126.1693094598697,521.8975711708279,-24101.78574618467,0.0
-196.83102994504023,10266.093449485235,14046.03997832572,11894.153303838848,-2748.3580543166945,1128.0866494780903,522.5763809909432,-24079.516020507202,0.0
-193.36552717918792,10265.009735561893,14043.813005757975,11893.31967774397,-2749.8466723432634,1125.442863862904,521.5164849560261,-24067.499895796736,0.0
-195.05659725737016,10259.567348056758,14037.44172060426,11889.580269261229,-2753.204994611203,1120.965100838985,515.7049201803014,-24082.874342775143,0.0
-199.68917655605242,10253.27942551253,14032.690051863452,11884.280789086644,-2757.4326698066584,1117.2137834120315,513.6089459988924,-24103.08382110384,0.0
-199.04609356857466,10256.554385170983,14039.513876897245,11889.615996093866,-2752.8596352290383,1118.178407893248,513.9423964368439,-24125.984720824574,0.0
-197.68847392834388,10256.566294115195,14041.431216915465,11889.365908265403,-2754.0267117618687,1116.939877695143,514.3592094842832,-24147.38509357453,0.0
-199.36763506231355,10253.993962165285,14037.453629548472,11885.555046117386,-2757.182581978195,1115.951435325501,513.8471248831435,-24156.936066832994,0.0
-199.86781071924068,10257.352284433222,14039.597239506731,11888.996730994813,-2754.514978474583,1117.761594845809,512.6562304618884,-24143.62186720336,0.0
-199.1890008991253,10256.947380329997,14038.358709308626,11888.127378067296,-2756.194139608553,1112.855109830238,510.07198956776483,-24128.699960105037,0.0
-195.3543208626839,10259.174352897744,14039.573421618306,11889.330181432764,-2755.3605135136745,1115.3678970590863,512.3108710797244,-24107.025681638195,0.0
-192.32944903269598,10262.687491440447,14044.015457809586,11892.188328043778,-2754.5864321398585,1117.7258680131713,514.9665656391232,-24083.98187458691,0.0
-194.0443369993033,10257.542827540625,14042.30056984298,11891.890604438464,-2753.14544989014,1118.1903168374608,513.144497174603,-24069.00042276752,0.0
-196.60476000500174,10251.469265992224,14034.797934989074,11884.923872074121,-2757.4326698066584,1115.10590028641,509.0835471981231,-24078.67048546811,0.0
-196.64048683763943,10253.51760439678,14035.691105805015,11885.090597293096,-2758.552110562638,1112.9265634955132,511.2033392679572,-24095.652639915206,0.0
-198.534008967435,10257.29273971216,14039.621057395158,11886.900756813404,-2757.778029188822,1113.2838318218899,515.9907348414026,-24119.029897404445,0.0
-198.6292805211354,10259.436349670419,14041.693213688139,11890.532984798234,-2755.312877736824,1117.7973216784465,517.0863577089573,-24139.54900828267,0.0
-200.15362538034188,10259.043354511405,14041.574124246014,11892.43841587224,-2753.478900328091,1118.9405803228515,518.2653431859999,-24147.873360287245,0.0
-197.02157305244103,10259.948434271559,14043.574826873724,11895.37992509274,-2750.049124394877,1120.965100838985,523.2909176436963,-24135.940598186266,0.0
-195.91404124067378,10259.567348056758,14043.241376435772,11894.093759117786,-2750.799387880267,1121.155643946386,522.1119321666538,-24118.184362365355,0.0
-196.60476000500174,10258.209728416528,14039.763964725707,11891.747697107912,-2752.7643636753382,1120.250564186232,521.5403028444514,-24095.71218463627,0.0
-196.6166689492143,10253.493786508358,14034.881297598562,11888.032106513596,-2754.979427298873,1119.0239429323392,519.6110538820182,-24078.81339279866,0.0
-198.17674064105847,10249.86155852353,14030.403534574642,11885.185868846798,-2756.277502218041,1118.0355005626975,516.1455511161658,-24070.03650091401,0.0
-197.46220398830542,10253.255607624107,14034.416848774272,11888.234558565211,-2754.3482532556077,1121.179461834811,523.4933696953096,-24077.96785775957,0.0
-196.46185267445114,10256.971198218422,14039.978325721533,11892.581323202792,-2752.9906336153767,1121.917816375989,524.3269957901882,-24096.1170887395,0.0
-201.04679619628322,10254.672771985399,14039.192335403504,11891.271339339411,-2756.69431526548,1120.4411072936327,524.4579941765262,-24121.590320410145,0.0
-203.4524029272185,10254.791861427524,14041.062039644874,11890.771163682484,-2756.730042098118,1120.7388308989466,523.6124591374352,-24135.607147748316,0.0
-202.70213944182777,10256.22093473303,14041.943301516603,11891.807241828976,-2754.3958890324575,1122.584717251892,523.5529144163725,-24138.57247485724,0.0
-200.32035059931763,10254.934768758076,14038.882702853978,11887.805836573558,-2759.1356488290526,1118.4880404427745,519.6229628262306,-24128.795231658736,0.0
-199.98690016136618,10253.589058062058,14035.631561083952,11885.233504623648,-2759.9692749239316,1117.5829606826208,521.0758540201618,-24113.254059461357,0.0
-200.37989532038037,10253.767692225247,14038.846976021341,11887.865381294621,-2757.86139179831,1117.8092306226592,522.5168362698805,-24087.78082779071,0.0
-200.8324352004573,10255.613578578192,14043.18183171471,11892.069238601653,-2755.741599728476,1118.3094062795863,517.9080748596234,-24069.095694321222,0.0
-200.16553432455444,10257.864369034362,14044.670449741277,11894.141394894636,-2753.490809272304,1121.262824444299,522.4334736603926,-24060.97379436826,0.0
-201.51124502057272,10256.744928278384,14042.360114564042,11891.842968661613,-2756.194139608553,1120.5006520146958,522.743106209919,-24069.036149600157,0.0
-202.8212288839533,10253.410423898868,14039.87114522362,11889.842266033904,-2756.7657689307553,1120.857920341072,525.4345276019554,-24086.98292852847,0.0
-202.34487111545127,10255.184856586538,14040.740498151135,11891.616698721575,-2754.383980088245,1123.9066100594853,528.5665799298563,-24114.028140835173,0.0
-203.65485497883185,10257.304648656373,14041.455034803888,11891.5452450563,-2755.1818793504863,1122.8109871919305,529.0072108657207,-24134.011349223834,0.0
-203.84539808623265,10257.018833995271,14041.633668967077,11890.973615734096,-2756.9682209823686,1120.917465062135,528.6856693719818,-24138.52483908039,0.0
-201.68987918376095,10255.172947642326,14040.966768091173,11890.092353862368,-2758.230569068899,1121.9535432086268,527.5066838949392,-24120.959146366877,0.0
-202.58304999970227,10252.028986370213,14037.096361222097,11887.81774551777,-2759.981183868144,1122.2750847023656,529.2096629173341,-24099.713589891686,0.0
-201.74942390482371,10253.934417444221,14036.393733513554,11888.532282170523,-2759.695369207043,1122.6442619729548,530.0194711237875,-24078.06312931327,0.0
-199.66535866762732,10253.79151011367,14035.774468414502,11887.543839800883,-2760.9815351819984,1121.3223691653616,527.9711327192288,-24058.59200552575,0.0
-199.46290661601395,10250.89763667002,14034.40493983006,11885.769407113212,-2762.160520659041,1117.547233849983,519.003697727178,-24047.242781691188,0.0
-201.72560601639861,10248.634937269637,14033.714221065731,11885.72177133636,-2763.7325012950973,1117.225692356244,524.731899893415,-24057.555927379257,0.0
-204.07166802627114,10247.920400616882,14033.726130009944,11884.185517532942,-2764.8281241626523,1113.7720985346043,519.801596989419,-24080.849822259006,0.0
-204.64329734847357,10248.694481990698,14034.40493983006,11886.805485259703,-2762.52969792963,1116.8088793088048,521.1592166296497,-24099.86840616645,0.0
-204.79811362323673,10248.087125835858,14034.142943057383,11888.66328055686,-2760.933899405148,1117.7496859015962,521.8975711708279,-24110.360186017708,0.0
-200.67761892569413,10249.30183814554,14036.310370904068,11889.484997707528,-2756.08695911064,1120.2624731304447,524.9343519450283,-24116.838651669335,0.0
-199.3795440065261,10252.243347366039,14040.335594047909,11891.807241828976,-2753.8242597102553,1120.7864666757969,529.8051101279616,-24105.346520504223,0.0
-199.96308227294108,10252.243347366039,14037.35835799477,11886.722122650215,-2763.029873586557,1116.118160544477,526.827874074824,-24089.710076753145,0.0
-201.63033446269822,10251.07627083321,14035.393382199702,11886.531579542816,-2763.1846898613203,1117.4281444078576,528.2926742129677,-24071.79902465747,0.0
-203.0594077682043,10251.266813940609,14037.060634389458,11886.686395817578,-2761.3745303410124,1118.6428567175376,527.9592237750162,-24053.97133517128,0.0
-199.90353755187834,10249.873467467742,14037.263086441071,11887.353296693482,-2762.6249694833305,1116.2967947076652,528.7690319814697,-24040.121233052083,0.0
-199.24854562018805,10249.039841372864,14037.155905943158,11888.472737449461,-2762.124793826403,1116.1538873771146,530.4124662828017,-24051.994450431997,0.0
-199.99880910557874,10250.361734180455,14037.334540106347,11887.996379680959,-2762.4939710969925,1118.023591618485,528.7452140930445,-24073.10900852085,0.0
-202.53541422285207,10248.170488445347,14036.17937251773,11888.460828505249,-2759.02846833114,1121.8582716549263,535.4023139078605,-24098.78469224311,0.0
-205.27447139173876,10247.086774522004,14035.024204929112,11885.828951834275,-2761.6722539463262,1118.8810356017887,531.8058127556701,-24113.789961950923,0.0
-203.23804193139256,10249.349473922388,14035.214748036511,11884.68569318987,-2766.161925914458,1114.7843587926714,526.9707814053745,-24115.528667805953,0.0
-200.04644488242894,10251.50499282486,14037.001089668394,11885.888496555337,-2765.697477090169,1118.2022257816734,527.6615001697024,-24106.01342138013,0.0
-202.44014266915167,10248.837389321248,14032.40423720235,11883.077985721175,-2765.7212949785935,1117.523415961558,526.6492399116356,-24088.912177490904,0.0
-203.0355898797792,10249.147021870776,14034.428757718484,11886.198129104865,-2761.910432830577,1120.3458357399325,536.8671140460042,-24067.88098201154,0.0
-202.63068577655247,10249.027932428651,14036.965362835757,11888.615644780013,-2759.9692749239316,1122.9896213551187,539.153631334814,-24051.268004835034,0.0
-202.5235052786395,10245.33615972276,14032.439964034987,11885.674135559511,-2764.25649484045,1117.9878647858473,536.7003888270285,-24042.264843010344,0.0
-202.20196378490064,10243.526000202452,14030.760802901019,11883.697250820227,-2766.745464180873,1114.129366860981,532.234534747322,-24049.755568920034,0.0
-202.70213944182777,10243.395001816114,14031.070435450545,11883.661523987592,-2765.6141144806807,1114.8200856253088,530.4720110038644,-24071.679935215343,0.0
-203.0355898797792,10246.026878487088,14034.73839026801,11884.661875301445,-2766.495376352409,1111.9143032374466,526.6492399116356,-24095.212008979342,0.0
-201.84469545852411,10247.11059241043,14036.048374131391,11886.055221774313,-2765.0186672700534,1113.522010706141,528.947666144658,-24107.692582514097,0.0
-197.34311454617992,10252.683978301904,14041.216855919638,11892.676594756493,-2758.1591154036237,1122.346538367641,539.4870817727654,-24111.69398776951,0.0
-192.28181325584578,10257.9953674207,14046.647334480562,11897.999892819502,-2753.026360448014,1131.0281586985907,547.6089817257251,-24096.510083898513,0.0
-191.0671009461656,10255.625487522404,14044.134547251713,11894.391482723098,-2756.8253136518183,1128.7416414097806,547.0373524035226,-24080.325828713656,0.0
-199.31999928546335,10245.931606933387,14032.940139691915,11883.578161378102,-2766.5668300176844,1117.99977373006,539.7252606570164,-24067.5594405178,0.0
-206.274822705593,10237.77398014779,14024.782512906319,11876.70670056746,-2773.6288339357275,1110.3423226013897,534.5805967571945,-24054.388148218717,0.0
-205.8222828255161,10240.1557689903,14029.617544256613,11881.720366080945,-2768.758075752794,1115.427441780149,539.2369939443018,-24040.466592434248,0.0
-203.98830541678328,10242.954370880248,14032.773414472938,11884.840509464633,-2765.8880201975694,1117.2137834120315,540.0468021507553,-24050.446287684365,0.0
-206.5249105340566,10239.774682775498,14029.427001149214,11880.993920483977,-2771.544768698531,1111.366491803669,533.2348860611762,-24074.395174495807,0.0
-209.34733031243113,10234.761017262015,14024.067976253566,11875.81352975152,-2775.4032666233975,1105.6025628047946,525.4583454903806,-24099.713589891686,0.0
-207.441899238423,10235.499371803193,14025.282688563244,11876.778154232738,-2774.009920150529,1105.6859254142823,523.9101827427489,-24117.624641987364,0.0
-203.41667609458085,10240.89412353148,14030.451170351493,11881.303553033506,-2770.151422225663,1110.4018673224525,530.5553736133523,-24117.97000136953,0.0
-201.82087757009901,10246.348419980826,14036.012647298754,11887.30566091663,-2764.4470379478507,1117.463871240495,540.6065225287452,-24102.655099112188,0.0
-201.47551818793502,10246.396055757676,14035.179021203876,11886.92457470183,-2765.852293364932,1117.7973216784465,540.213527369731,-24082.69570861195,0.0
-206.39391214771854,10238.84578512692,14026.402129319224,11877.456964052852,-2774.414824253756,1109.6516038370619,529.9361085142996,-24065.356285838476,0.0
-208.608975771253,10235.058740867327,14022.17445412377,11872.443298539369,-2779.6904865399156,1102.8396877474827,521.8022996171275,-24046.79024181111,0.0
-207.02508619098376,10236.14245479067,14024.782512906319,11874.705997939753,-2778.0708701270087,1104.4593041603898,530.2814678964636,-24038.39443614126,0.0
-206.6678178646072,10239.250689230144,14029.724724754526,11881.45836930827,-2772.509393179748,1110.1398705497763,532.3655331336599,-24050.80355601074,0.0
-206.84645202779546,10238.643333075306,14026.5688545382,11881.553640861968,-2770.758778380503,1111.9738479585092,531.9725379746459,-24072.43019870073,0.0
-205.63173971811528,10239.048237178533,14023.1509875492,11880.612834269177,-2771.092228818454,1112.3668431175233,537.0338392649799,-24096.46244812166,0.0
-206.12000643082987,10240.501128372465,14022.126818346918,11876.825790009587,-2776.0701674993,1110.9020429793795,536.450300998565,-24110.78890800936,0.0
-204.66711523689867,10240.965577196754,14023.234350158686,11876.46852168321,-2776.0582585550874,1113.224287100827,540.5231599192573,-24115.743028801782,0.0
-202.987954102929,10241.156120304153,14026.533127705563,11880.148385444887,-2771.35422559113,1116.618336201404,537.5935596429698,-24106.465961260204,0.0
-203.3809492619432,10240.131951101876,14028.140835174258,11879.755390285874,-2769.1987066886586,1116.8207882530176,538.4629125704861,-24087.828463567563,0.0
-202.76168416289053,10238.512334688967,14028.414740891147,11880.731923711302,-2770.9731393763286,1114.6890872389706,538.2842784072977,-24060.997612256684,0.0
-203.14277037769216,10239.000601401682,14030.653622403106,11880.67237899024,-2776.594161044652,1110.4852299319402,536.2359400027391,-24045.039627011865,0.0
-202.67832155340267,10239.619866500736,14030.71316712417,11879.922115504849,-2777.523058693231,1109.1037924032844,537.1767465955305,-24038.930338630827,0.0
-204.04785013784604,10239.476959170184,14030.95134600842,11880.446109050203,-2775.486629232885,1111.6523064647704,536.5932083291156,-24046.40915559631,0.0
-205.52455922020232,10236.309180009646,14030.963254952632,11883.161348330663,-2771.9020370249077,1116.8207882530176,537.9389190251338,-24065.308650061626,0.0
-207.73962284373678,10237.67870859409,14031.892152601211,11887.079390976593,-2765.7570218112314,1121.8225448222888,540.7494298592958,-24088.98363115618,0.0
-207.83489439743718,10240.751216200928,14034.64311871431,11890.878344180397,-2763.2085077497454,1118.3570420564365,538.7487272315873,-24106.096783989615,0.0
-208.23979850066394,10240.239131599788,14033.57131373518,11887.448568247182,-2768.4603521474805,1112.5097504480739,534.1995105423928,-24115.028492149027,0.0
-207.38235451736026,10242.537557832811,14037.179723831583,11889.806539201267,-2767.6862707736645,1110.3423226013897,537.9746458577714,-24100.749668038177,0.0
-204.50039001792294,10242.656647274936,14038.453980862327,11890.628256351933,-2765.9594738628443,1115.6418027759748,545.465371767466,-24082.207441899238,0.0
-206.1319153750424,10240.417765762975,14035.929284689266,11887.960652848322,-2769.174888800233,1113.9983684746428,537.6292864756075,-24054.078515669193,0.0
-207.83489439743718,10239.381687616484,14033.01159335719,11883.923520760265,-2772.306941128134,1113.0575618818514,539.7609874896541,-24040.180777773145,0.0
-205.8461007139412,10241.13230241573,14033.023502301403,11881.351188810357,-2774.093282760017,1113.5577375387784,540.082528983393,-24035.66728791659,0.0
-207.91825700692505,10241.37048129998,14031.165707004246,11881.18446359138,-2775.5342650097355,1112.747929332325,540.2254363139436,-24045.61125633407,0.0
-209.49023764298175,10242.204107394859,14031.820698935935,11884.63805741302,-2771.8305833596323,1116.6540630340417,542.6191341006663,-24064.034393030885,0.0
-207.85871228586228,10244.08572058044,14034.845570765923,11890.235261192918,-2763.780137071948,1121.870180599139,546.4538141371077,-24087.6736472928,0.0
-209.40687503349392,10244.300081576268,14035.095658594386,11888.103560178872,-2766.6263747387475,1120.6078325126086,550.5385820020126,-24101.16648108562,0.0
-211.69339232230365,10242.025473231672,14029.78426947559,11879.302850405797,-2775.1055430180836,1114.998719788497,548.0972484384396,-24108.192758171022,0.0
-210.5620426221113,10240.370129986126,14028.807736050161,11878.75503897202,-2777.7969644101204,1113.6172822598412,544.0720252945976,-24094.914285374027,0.0
-208.29934322172667,10239.357869728059,14030.177264634603,11880.291292775439,-2777.6183302469317,1116.725516699317,544.8580156126259,-24073.597275233562,0.0
-203.53576553670635,10241.489570742106,14033.630858456243,11883.828249206566,-2772.926206227187,1121.5367301611875,550.3242210061867,-24047.218963802763,0.0
-204.54802579477317,10244.609714125792,14035.786377358716,11886.448216933328,-2770.1276043372372,1124.1924247205864,552.9203708445227,-24026.30685776552,0.0
-205.44119661071448,10247.89658272846,14036.596185565168,11887.472386135607,-2770.246693779363,1122.0726326507522,552.8250992908223,-24017.756235820914,0.0
-205.39356083386426,10244.58589623737,14034.50021138376,11885.090597293096,-2771.9973085786078,1117.2852370773069,548.4783346532413,-24026.187768323398,0.0
-205.21492667067602,10247.575041234719,14038.132439368586,11889.330181432764,-2767.269457726225,1121.7153643243757,546.7753556308464,-24044.598996076,0.0
-208.28743427751414,10246.396055757676,14037.084452277884,11886.865029980767,-2770.711142603652,1119.536027533479,543.1074008133809,-24070.167499300347,0.0
-208.45415949648984,10245.09798083851,14037.286904329496,11886.734031594428,-2768.781893641219,1122.1559952602402,553.6229985530633,-24084.77977384915,0.0
-208.95433515341696,10244.049993747805,14036.191281461943,11886.472034821752,-2769.317796130784,1123.3587986257078,552.3130146896826,-24091.115332170226,0.0
-208.28743427751414,10241.620569128443,14031.23716066952,11884.245062254005,-2772.4022126818345,1120.9055561179223,553.6229985530633,-24081.46908735806,0.0
-207.45380818263556,10240.20340476715,14029.939085750353,11885.24541356786,-2770.9493214879035,1120.9770097831977,551.0149397705146,-24059.866262556494,0.0
-207.33471874051006,10242.382741558047,14033.118773855103,11887.782018685133,-2767.8649049368523,1123.8947011152727,551.0030308263022,-24030.236809355665,0.0
-206.09618854240478,10242.430377334897,14036.310370904068,11889.03245782745,-2765.5664787038304,1125.7882232450681,553.3610017803871,-24008.514895111974,0.0
-205.67937549496548,10240.584490981952,14035.429109032339,11887.734382908284,-2768.496078980118,1121.1199171137482,551.5270243716543,-24001.583889580266,0.0
-205.20301772646346,10241.64438701687,14034.750299212223,11888.020197569384,-2769.972788062474,1119.452664923991,551.8604748096058,-24010.813321344995,0.0
-204.4408452968602,10240.727398312503,14033.630858456243,11886.067130718526,-2770.8421409899906,1120.226746297807,553.0037334540106,-24034.535938216395,0.0
-208.66852049231574,10237.154715048737,14027.676386349967,11880.219839110165,-2775.546173953948,1118.7857640480881,551.0149397705146,-24063.427036876044,0.0
-208.7518831018036,10238.929147736408,14029.891449973502,11881.529822973544,-2775.045998297021,1117.2971460215194,551.0030308263022,-24080.992729589558,0.0
-207.441899238423,10242.085017952733,14033.726130009944,11885.054870460459,-2773.438290828327,1117.7496859015962,549.7525916839843,-24087.006746416893,0.0
-207.95398383956268,10240.429674707188,14032.142240429674,11884.507059026682,-2772.8904793945494,1119.8337511387929,550.8243966631138,-24071.21548639105,0.0
-207.97780172798778,10237.619163873027,14029.3198206513,11881.946636020983,-2774.2600079789927,1119.0239429323392,551.193573933703,-24048.386040335594,0.0
-209.2163319260931,10239.250689230144,14028.212288839532,11880.196021221738,-2776.9990651478793,1115.4988954454243,549.1214176407191,-24026.247313044463,0.0
-209.79987019250808,10238.071703753105,14026.604581370839,11878.207227538242,-2780.2978426947557,1114.4270904662947,546.656266188721,-24003.572683263767,0.0
-208.83524571129146,10237.0237166624,14023.543982708214,11878.850310525719,-2778.094688015434,1116.963695583568,548.3949720437535,-23991.544649609088,0.0
-208.27552533330157,10234.713381485164,14020.209478328698,11873.241197801608,-2782.4057258203775,1113.0813797702763,547.4660743951745,-24007.026277085402,0.0
-207.35853662893516,10234.189387939812,14021.305101196253,11873.086381526844,-2780.9647435706584,1109.5325143949362,546.2394531412817,-24026.61649031505,0.0
-209.04960670711736,10237.1189882161,14027.807384736305,11877.849959211866,-2780.667019965345,1109.5444233391488,544.905651389476,-24047.040329639574,0.0
-210.1809564073097,10235.72564174323,14026.342584598162,11876.88533473065,-2782.9654461983673,1108.532163081082,551.6937495906301,-24063.90339464455,0.0
-210.014231188334,10233.20094557017,14023.984613644076,11876.968697340137,-2781.703098111837,1113.2600139334647,550.717216165201,-24072.394471868098,0.0
-208.47797738491494,10235.39219130528,14027.462025354142,11879.529120345836,-2778.9164051661,1117.2495102446692,554.3375352058163,-24057.460655825555,0.0
-209.66887180617002,10236.463996284408,14029.97481258299,11881.922818132558,-2775.296086125484,1120.4053804609953,556.5883256619884,-24033.392679571993,0.0
-209.49023764298175,10235.011105090478,14029.534181647126,11880.827195265005,-2775.3913576791847,1119.4169380913536,557.0646834304905,-24008.693529275162,0.0
-211.0503093348259,10236.84508249921,14029.010188101773,11880.029296002762,-2777.1896082552803,1118.237952614311,559.7561048225269,-23988.162509452723,0.0
-211.66957443387855,10235.320737640004,14027.59302374048,11880.076931779613,-2777.511149749019,1118.023591618485,560.2443715352415,-23978.587718305833,0.0
-211.0979451116761,10235.713732799019,14027.271482246742,11879.386213015285,-2776.1773479972135,1122.3822652002787,562.6142514335392,-23986.364258876627,0.0
-209.47832869876922,10237.833524868853,14027.700204238392,11878.969399967846,-2777.23724403213,1121.2747333885113,561.6139001196848,-24005.894927385212,0.0
-211.88393542970448,10237.845433813065,14029.593726368188,11881.994271797834,-2774.0575559273793,1121.6915464359506,560.7683650805938,-24030.665531347317,0.0
-212.93192252040893,10237.559619151963,14029.296002762876,11882.089543351534,-2774.283825867418,1122.429900977129,559.994283706778,-24044.82526601604,0.0
-211.78866387600405,10239.357869728059,14030.844165510507,11884.840509464633,-2772.175942741796,1124.1328799995238,567.9137316081243,-24049.981838860076,0.0
-212.37220214241904,10238.047885864678,14029.403183260787,11884.507059026682,-2772.8428436176987,1122.453718865554,565.1508565508125,-24037.8585336517,0.0
-214.468176323828,10236.868900387635,14027.807384736305,11884.459423249831,-2771.461406089043,1121.6915464359506,562.114075776612,-24021.043104423577,0.0
-213.6226412847369,10237.178532937163,14028.093199397406,11883.744886597078,-2771.366134535343,1120.2386552420194,561.5662643428346,-24001.08371392334,0.0
-210.2762279610101,10236.880809331848,14028.498103500633,11883.697250820227,-2771.520950810106,1119.8099332503677,564.5196825075473,-23979.897702169215,0.0
-210.28813690522267,10237.035625606612,14028.176562006896,11884.245062254005,-2773.0452956693125,1118.2260436700983,560.9589081879946,-23967.393310746036,0.0
-211.074127223251,10235.02301403469,14025.44941378222,11882.935078390625,-2774.986453575958,1118.976307155489,562.9953376483408,-23976.70610512025,0.0
-212.88428674355873,10236.27345317701,14027.259573302528,11881.684639248308,-2777.6302391911445,1119.8337511387929,562.2688920513751,-23998.559017750278,0.0
-214.64681048701627,10236.523541005472,14027.747840015243,11880.041204946976,-2778.0589611827963,1122.2274489255153,563.9837800179824,-24026.99757652985,0.0
-214.84926253862963,10233.724939115522,14023.4368022103,11873.824736068023,-2784.061069065922,1118.8572177133635,559.5298348824884,-24043.59864476215,0.0
-214.4919942122531,10232.21250320053,14020.209478328698,11869.906693422094,-2787.050214063272,1114.7367230158209,561.9473505576364,-24050.66064868019,0.0
-214.62299259859117,10231.85523487415,14020.35238565925,11871.169041508625,-2788.443560536141,1112.4144788943736,567.4731006722599,-24042.44347717353,0.0
-214.0751811648138,10232.629316247967,14021.38846380574,11873.741373458535,-2786.2404058568186,1112.855109830238,566.3179330836425,-24027.91456523422,0.0
-211.55048499175305,10230.604795731833,14018.91140340953,11872.77674897732,-2786.0022269725678,1110.7948624814667,561.852079003936,-24004.63257929868,0.0
-208.0730732816882,10230.985881946635,14019.554486397008,11873.443649853223,-2785.251963487177,1112.7836561649626,565.853484259353,-23988.6150493328,0.0
-209.20442298188053,10234.903924592565,14025.354142228522,11875.337171983017,-2784.3349747828106,1111.7833048511084,564.6268630054602,-23979.337981791225,0.0
-209.3116034797935,10237.714435426726,14029.617544256613,11880.172203333314,-2779.2974913809016,1114.8200856253088,559.8632853204399,-23988.94849977075,0.0
-205.58410394126508,10242.537557832811,14033.214045408804,11885.435956675261,-2774.081373815804,1120.0242942461937,562.566615656689,-24003.810862148017,0.0
-204.38130057579744,10243.168731876076,14033.094955966679,11886.162402272226,-2773.104840390375,1121.2151886674487,566.5203851352559,-24023.9131599788,0.0
-208.82333676707893,10235.785186464294,14026.402129319224,11879.934024449063,-2778.4043205649605,1116.7731524761673,563.7813279663691,-24045.932797827805,0.0
-214.3729047701276,10228.520730494638,14020.245205161336,11875.051357321916,-2783.739527572183,1110.9377698120172,559.3035649424501,-24056.924753335992,0.0
-217.0881440505892,10229.020906151565,14021.579006913142,11875.158537819829,-2784.5255178902116,1110.2708689361145,558.1483973538326,-24046.111431990998,0.0
-216.71896678000013,10229.794987525382,14021.864821574243,11873.646101904835,-2786.943033565359,1110.7829535372541,559.1487486676868,-24027.843111568942,0.0
-214.80162676177943,10231.950506427853,14024.413335635729,11876.587611125335,-2783.787163349033,1112.855109830238,559.7918316551645,-24003.894224757503,0.0
-211.6338476012409,10235.296919751578,14027.354844856229,11879.850661839573,-2781.5244639486486,1115.2726255053858,564.5196825075473,-23984.26828469522,0.0
-214.3490868817025,10234.915833536777,14026.759397645603,11879.183760963671,-2781.1195598454215,1119.035851876552,568.7830845356405,-23976.03920424435,0.0
-218.9459393477471,10231.224060830886,14022.853263943884,11876.111253356834,-2784.370701615448,1117.8092306226592,569.8787074031952,-23987.06688658517,0.0
-223.13788771056502,10230.045075353844,14020.41193038031,11874.717906883965,-2785.644958646191,1116.380157317153,566.8300176847822,-24008.324352004573,0.0
-223.07834298950226,10233.224763458596,14023.567800596638,11878.14768281718,-2783.1083535289176,1115.7251653854626,564.3529572885716,-24028.99827915756,0.0
-222.00653801037268,10234.0822074419,14023.532073764,11879.552938234261,-2782.8344478120293,1114.8915392905842,568.7711755914279,-24044.980082290804,0.0
-223.61424547906705,10232.391137363717,14021.507553247866,11875.30144515038,-2783.5847112974197,1112.3906610059485,568.3781804324137,-24050.708284457043,0.0
-225.18622611512373,10231.56942021305,14022.341179342744,11875.432443536718,-2783.07262669628,1109.3181533991105,564.7340435033732,-24039.13279068244,0.0
-224.2096926896946,10233.129491904894,14025.54468533592,11878.731221083593,-2782.8106299236038,1112.033392679572,563.3287880862922,-24018.542226138943,0.0
-222.3638063367492,10230.35470790337,14022.817537111248,11876.170798077896,-2785.097147212414,1111.5451259668573,560.4230056984297,-23996.03432157722,0.0
-221.43490868817022,10229.425810254792,14020.423839324523,11874.2772759481,-2786.943033565359,1106.7220035607743,551.0149397705146,-23974.99121715364,0.0
-220.05347115951434,10231.450330770926,14021.090740200427,11874.301093836526,-2787.18121244961,1108.4249825831691,562.9953376483408,-23961.617472802947,0.0
-221.99462906616012,10232.831768299582,14022.222089900619,11875.182355708253,-2786.6810367926832,1113.5815554272035,572.7368540142073,-23975.824843248523,0.0
-224.03105852650634,10232.200594256316,14021.912457351094,11875.658713476756,-2787.478936054924,1114.4389994105072,571.0934197128753,-24001.095622867553,0.0
-224.05487641493144,10234.1774789956,14025.770955275959,11880.803377376578,-2781.941276996088,1118.3213152237986,572.665400348932,-24021.60282480157,0.0
-223.959604861231,10231.18833399825,14021.495644303654,11876.28988752002,-2785.621140757766,1113.7244627577543,567.9613673849746,-24036.381824569344,0.0
-223.91196908438081,10229.771169636955,14018.828040800043,11871.94312288244,-2786.4071310757945,1110.8186803698916,566.782381907932,-24039.978325721535,0.0
-222.7806193841885,10229.175722426327,14018.982857074807,11870.335415413747,-2788.9556451372805,1110.6162283182784,569.9858879011081,-24028.903007603858,0.0
-222.59007627678767,10229.437719199004,14021.305101196253,11873.324560411096,-2788.4554694803533,1112.77174722075,572.5939466836568,-24010.765685568145,0.0
-221.494453409233,10229.735442804318,14020.114206774999,11875.277627261954,-2787.5384807759865,1113.593464371416,573.4632996111729,-23986.542893039816,0.0
-220.17256060163984,10228.723182546251,14019.018583907442,11873.52701246271,-2788.3125621498025,1113.4505570408655,572.4510393531061,-23969.024836103155,0.0
-220.0177443268767,10228.961361430502,14021.078831256214,11874.1820043944,-2788.9437361930677,1112.8074740533878,567.5683722259603,-23957.93760904127,0.0
-220.00583538266415,10229.98553063278,14022.60317611542,11879.02894468891,-2781.9531859403,1117.785412734234,569.7000732400069,-23967.36949285761,0.0
-220.80373464490503,10231.581329157263,14023.99652258829,11879.457666680559,-2781.7269160002616,1117.9759558416347,575.8689063421083,-23988.62695827701,0.0
-222.12562745249818,10230.509524178133,14023.008080218648,11873.967643398575,-2791.277889258728,1106.7100946165617,570.4027009485474,-24015.624534806866,0.0
-222.5305315557249,10229.008997207353,14022.710356613334,11873.407923020584,-2790.8134404344382,1105.4953823068815,569.616710630519,-24033.01159335719,0.0
-224.04296747071888,10228.127735335624,14021.507553247866,11873.503194574285,-2790.8134404344382,1108.162985810493,572.5224930183814,-24038.513525583392,0.0
-225.84121804681408,10232.855586188007,14024.353790914667,11876.504248515848,-2786.657218904258,1113.1647423797642,575.5354559041568,-24023.49634693136,0.0
-223.20934137584032,10235.130194532603,14026.104405713912,11878.969399967846,-2785.5377781482784,1115.5941669991248,578.0125163003675,-24002.608058782545,0.0
-222.899708826314,10232.438773140568,14022.674629780697,11876.087435468407,-2788.5864678666912,1113.7363717019666,576.6191698274989,-23983.637110651955,0.0
-223.61424547906705,10230.77152095081,14021.10264914464,11874.098641784913,-2789.443911849995,1112.9741992723634,575.2734591314808,-23966.29768787848,0.0
-222.2447168946237,10233.153309793319,14023.162896493412,11874.336820669163,-2790.515716829125,1112.2239357869728,573.248938615347,-23956.353719461,0.0
-220.05347115951434,10234.308477381937,14023.853615257738,11875.587259811482,-2789.56300129212,1114.0936400283433,574.8566460840414,-23963.618175430656,0.0
-221.70881440505892,10236.868900387635,14024.472880356792,11877.063968893837,-2788.431651591928,1114.4032725778695,575.5473648483693,-23985.161455511163,0.0
-224.15014796863184,10237.511983375114,14024.175156751478,11877.218785168601,-2788.9199183046426,1115.0701734537724,578.3578756825314,-24008.169535729812,0.0
-226.68675308590517,10235.106376644178,14024.020340476714,11876.778154232738,-2788.669830476179,1114.6890872389706,575.2853680756932,-24022.388815119597,0.0
-227.99673694928575,10229.449628143217,14019.756938448621,11872.395662762518,-2792.254422684157,1111.6284885763453,575.3925485736062,-24030.427352463066,0.0
-226.12703270791528,10231.224060830886,14022.341179342744,11875.551532978843,-2789.56300129212,1114.2722741915316,581.2755670146063,-24016.57725034387,0.0
-225.1028635056359,10233.605849673397,14024.663423464192,11879.386213015285,-2784.382610559661,1120.0957479114688,581.6090174525577,-23997.30857860796,0.0
-225.76976438153875,10232.938948797495,14023.90125103459,11878.766947916232,-2784.716060997612,1119.1787592071025,581.6685621736206,-23977.015737669775,0.0
-225.1743171709112,10230.842974616084,14021.781458964755,11876.70670056746,-2788.122019042402,1113.2361960450396,577.4170690897398,-23957.687521212807,0.0
-222.8044372726136,10234.296568437725,14023.246259102898,11877.945230765565,-2788.5031052572035,1115.2607165611732,579.2034107216224,-23947.255286082614,0.0
-224.04296747071888,10236.011456404332,14025.354142228522,11881.017738372404,-2784.3349747828106,1123.299253904645,590.0405499550437,-23962.66545989365,0.0
-224.65032362555897,10237.333349211924,14027.188119637252,11880.62474321339,-2783.9181617353715,1125.5976801376673,593.0416038966065,-23981.92222268535,0.0
-225.13859033827353,10238.143157418379,14028.748191329098,11881.172554647168,-2784.299247950173,1123.2873449604326,590.0643678434689,-24003.358322267937,0.0
-225.76976438153875,10237.58343704039,14028.295651449022,11879.41003090371,-2787.776659660238,1121.179461834811,587.1466765113938,-24016.81542922812,0.0
-227.02020352385657,10236.285362121222,14024.008431532502,11877.04015100541,-2789.729726511096,1119.7146616966672,586.134416253327,-24016.708248730207,0.0
-225.4005871109497,10237.107079271886,14023.35343960081,11878.564495864619,-2787.8719312139383,1120.3458357399325,584.5624356172702,-23999.86900161366,0.0
-221.83981279139698,10240.989395085178,14029.736633698738,11884.006883369755,-2782.9654461983673,1125.288047588141,593.4584169440459,-23980.33833310508,0.0
-219.57711339101232,10235.809004352717,14025.973407327574,11881.029647316616,-2785.5496870924903,1122.298902590791,587.2300391208818,-23961.81992485456,0.0
-221.04191352915606,10234.12984321875,14023.35343960081,11876.88533473065,-2790.837258322863,1118.1188631721855,580.0489457607135,-23947.20765030576,0.0
-223.34033976217836,10232.152958479466,14020.44765721295,11873.503194574285,-2794.933935131981,1112.7836561649626,574.6184671997904,-23937.64476810308,0.0
-224.07869430335654,10231.974324316277,14019.125764405357,11872.717204256256,-2796.0771937763857,1115.8442548275882,580.5372124734282,-23951.57823283177,0.0
-224.50741629500834,10233.034220351194,14019.483032731734,11874.0867328407,-2794.5885757498168,1123.2873449604326,592.8748786776308,-23972.252159984757,0.0
-225.472040776225,10233.677303338673,14022.41263300802,11878.504951143555,-2792.099606409394,1125.4666817513294,593.2797827808575,-23995.93905002352,0.0
-226.81775147224323,10234.83247092729,14024.865875515805,11881.029647316616,-2791.1826177050275,1123.6922490636591,588.7543839800882,-24012.075669431524,0.0
-224.73368623504683,10234.403748935638,14023.591618485061,11879.112307298396,-2792.742689396872,1121.608183826463,595.3638480180539,-24016.922609726033,0.0
-221.3991818555326,10234.665745708313,14023.86552420195,11881.291644089293,-2788.4911963129907,1123.8947011152727,594.5897666442382,-24005.94256316206,0.0
-221.3991818555326,10233.486760231272,14022.281634621682,11878.552586920407,-2790.6467152154623,1124.1090621110984,591.9817078616895,-23991.25883494799,0.0
-221.3277281902573,10234.094116386112,14022.865172888098,11878.719312139381,-2793.7430407107254,1121.7034553801632,592.9463323429061,-23969.83464430961,0.0
-221.57781601872085,10233.546304952333,14021.94818418373,11877.849959211866,-2795.112569295169,1117.7020501247462,590.90990288256,-23951.57823283177,0.0
-221.48254446502042,10234.808653038865,14024.639605575767,11881.160645702954,-2791.444614477703,1117.8211395668718,590.7789044962219,-23937.656677047296,0.0
-222.35189739253667,10234.022662720836,14023.365348545023,11880.291292775439,-2792.9570503926975,1118.261770502736,591.8983452522016,-23945.861939609742,0.0
-222.76871043997593,10233.10567401647,14022.353088286956,11878.921764190996,-2792.8141430621467,1119.2621218165903,590.1834572855944,-23965.011521903525,0.0
-223.90006014016825,10233.129491904894,14022.400724063808,11879.552938234261,-2791.7066112503794,1118.4046778332865,585.1697917721104,-23988.7103208865,0.0
-222.23280795041117,10231.4265128825,14020.149933607634,11877.599871383401,-2792.433056847345,1117.1899655236064,586.3964130260032,-24006.418920930562,0.0
-223.18552348741522,10230.77152095081,14018.732769246342,11875.051357321916,-2794.457577363479,1115.7370743296754,583.9908062950678,-24009.848696863777,0.0
-223.82860647489295,10230.235618461245,14018.804222911618,11876.492339571636,-2791.84951858093,1116.0824337118393,582.7641850411751,-23999.964273167363,0.0
-224.43596262973304,10230.366616847583,14019.93557261181,11876.146980189471,-2794.0645822044644,1116.7731524761673,593.0177860081815,-23982.7320308918,0.0
-224.01914958229378,10232.164867423679,14020.935923925663,11876.277978575808,-2793.2428650537986,1116.6540630340417,591.4100785394871,-23955.8773616925,0.0
-223.49515603694155,10231.235969775098,14019.756938448621,11875.706349253607,-2793.5644065475376,1115.403623891724,590.1834572855944,-23937.91867381997,0.0
-221.75645018190912,10230.67624939711,14018.887585521104,11874.682180051328,-2796.625005210163,1114.1174579167682,592.3747030207037,-23936.668234677654,0.0
-220.2082874342775,10231.18833399825,14019.042401795868,11874.83699632609,-2795.981922222685,1116.9756045277807,594.4111324810499,-23948.82726671867,0.0
-224.543143127646,10229.235267147391,14018.006323649375,11874.217731227038,-2794.612393638242,1118.8453087691512,596.3999261645458,-23966.833590368045,0.0
-229.50917286427972,10231.224060830886,14019.340125401182,11873.57464823956,-2795.8866506689847,1119.190668151315,597.3288238131248,-23992.75936191877,0.0
-228.72318254625134,10232.045777981553,14019.363943289607,11874.872723158727,-2795.91046855741,1117.6425054036833,594.5064040347503,-24008.336260948785,0.0
-228.43736788515014,10234.058389553473,14021.38846380574,11876.694791623248,-2794.9458440761937,1116.1062516002644,592.8391518449931,-24012.992658135892,0.0
-228.0086458934983,10235.475553914768,14022.841354999671,11876.897243674863,-2793.8264033202136,1116.594518312979,595.4591195717543,-24001.36952858444,0.0
-227.44892551550842,10234.51092943355,14022.912808664947,11878.945582079421,-2791.7066112503794,1118.3213152237986,597.8766352469022,-23982.26758206751,0.0
-227.8895564513728,10233.034220351194,14020.864470260389,11877.766596602378,-2792.0519706325435,1119.6551169756046,597.2097343709994,-23959.61677017524,0.0
-227.9848280050732,10231.128789277185,14017.053608112372,11876.599520069549,-2793.6715870454505,1121.096099225323,596.7095587140722,-23939.16911296229,0.0
-227.78237595345985,10231.224060830886,14015.838895802692,11875.527715090418,-2790.9325298765634,1124.1924247205864,594.4111324810499,-23931.333027670433,0.0
-227.1869287428323,10231.974324316277,14019.590213229645,11875.95643708207,-2793.01659511376,1120.5244699031207,594.1491357083738,-23946.159663215058,0.0
-229.49726392006718,10231.950506427853,14021.602824801566,11877.73086976974,-2793.8502212086387,1119.7384795850924,597.5312758647382,-23969.060562935792,0.0
-229.56871758534248,10234.12984321875,14022.007728904793,11876.313705408447,-2794.8386635782804,1120.357744684145,599.4128890503213,-23988.126782620086,0.0
-229.4139013105793,10236.130545846458,14021.75764107633,11876.242251743171,-2792.7545983410837,1123.168255518307,599.9964273167362,-24001.03607814649,0.0
-228.23491583353675,10237.857342757277,14022.198272012194,11878.33822592458,-2790.146539558535,1124.7521450985762,605.3673611565966,-24005.45429644935,0.0
-226.73438886275537,10238.643333075306,14022.46026878487,11878.350134868793,-2789.5153655152703,1124.3710588837746,605.0815464954953,-23993.199992854632,0.0
-227.29410924074526,10237.881160645702,14021.448008526802,11877.242603057026,-2789.622546013183,1124.4186946606249,603.319022752038,-23971.29944444775,0.0
-225.126681394061,10239.17923556487,14025.461322726434,11880.279383831226,-2787.514662887562,1127.122024996874,605.3078164355339,-23946.231116880335,0.0
-226.87729619330597,10240.02477060396,14025.985316271786,11881.42264247563,-2788.3125621498025,1125.264229699716,601.4731363990925,-23927.200624028676,0.0
-228.1039174471987,10234.64192781989,14020.852561316176,11878.135773872968,-2790.825349378651,1123.704158007872,601.0563233516533,-23922.07977801728,0.0
-228.90181670943963,10234.344204214574,14020.781107650902,11877.90950393293,-2789.6106370689704,1128.2295568086413,608.249325656034,-23933.42900185184,0.0
-229.90216802329388,10234.332295270362,14021.602824801566,11878.135773872968,-2788.8127378067297,1130.7066172048517,604.7957318343941,-23947.410102357375,0.0
-229.87835013486878,10236.368724730708,14023.210532270261,11878.171500705605,-2790.2299021680233,1130.2064415479244,612.1673683019632,-23968.643749888353,0.0
-228.85418093258943,10236.023365348545,14023.734525815613,11878.886037358357,-2790.7062599365254,1129.7539016678477,616.1449556689552,-23980.457422547202,0.0
-227.32983607338292,10235.308828695792,14023.7226168714,11878.564495864619,-2791.84951858093,1127.515020155888,613.8465294359329,-23981.648316968458,0.0
-226.87729619330597,10235.011105090478,14022.281634621682,11877.3140567223,-2792.4568747357703,1127.5507469885256,614.6682465865989,-23972.240251040545,0.0
-227.1869287428323,10234.499020489338,14022.067273625855,11877.73086976974,-2791.408887645066,1129.0036381824568,616.9071280985585,-23959.366682346776,0.0
-226.25803109425334,10235.39219130528,14023.031898107072,11876.790063176948,-2792.3020584610067,1128.5749161908052,619.5509137137448,-23937.001685115607,0.0
-227.35365396180802,10234.903924592565,14021.376554861528,11875.003721545065,-2794.8267546340676,1124.3710588837746,616.6213134374573,-23913.95787806432,0.0
-228.25873372196187,10236.404451563347,14022.424541952234,11877.052059949625,-2794.0645822044644,1126.2764899577828,616.2997719437183,-23902.430020066568,0.0
-225.91267171208938,10236.880809331848,14024.69915029683,11881.434551419843,-2788.931827248855,1131.2663375828415,616.3593166647811,-23914.315146390698,0.0
-222.67343888627553,10240.048588492387,14028.39092300272,11884.97150785097,-2785.0495114355635,1132.0285100124447,618.3838371809147,-23934.381717388846,0.0
-219.58902233522485,10243.871359584615,14031.570611107472,11887.603384521946,-2781.9770038287256,1135.7679184951858,622.2542440499936,-23954.85319249022,0.0
-217.82649859176732,10248.003763226372,14036.191281461943,11892.759957365979,-2776.4155268814643,1139.1262407631252,625.7078378716335,-23965.487879672026,0.0
-221.73263229348402,10242.894826159187,14030.653622403106,11887.686747131433,-2783.2512608594684,1135.8036453278235,624.6717597251416,-23974.574404106203,0.0
-225.66258388362579,10237.797798036216,14025.104054400057,11882.720717394799,-2786.847762011659,1135.1248355077082,621.9803383331051,-23966.357232599545,0.0
-229.52108180849228,10235.72564174323,14022.87708183231,11880.934375762916,-2785.9903180283554,1134.517479352868,616.0496841152546,-23949.68471070197,0.0
-229.58062652955502,10233.796392780798,14019.852210002322,11874.753633716602,-2794.1717627023777,1127.1815697179366,613.0486301736919,-23929.04651038162,0.0
-226.22230426161568,10238.869603015344,14024.687241352618,11879.814935006938,-2789.3962760731447,1131.599788020793,619.0626470010301,-23909.956472808903,0.0
-223.31652187375326,10242.609011498085,14028.402831946934,11884.73332896672,-2786.168952191543,1132.1952352314206,618.8959217820544,-23900.691314211537,0.0
-225.4005871109497,10240.20340476715,14026.414038263436,11883.05416783275,-2787.3598466127987,1131.3973359691797,619.2293722200058,-23915.22022615085,0.0
-227.9610101166481,10238.631424131092,14025.270779619032,11883.637706099165,-2784.8589683281625,1138.5903382735603,624.9218475536052,-23932.619193645387,0.0
-223.25697715269052,10243.454546537176,14028.831553938584,11888.853823664263,-2778.940223054525,1141.9962963183498,626.5533729107246,-23950.172977414688,0.0
-220.92282408703053,10247.277317629405,14032.416146146563,11892.450324816455,-2773.1524761672254,1141.3770312192971,625.5530215968703,-23958.378239977133,0.0
-220.9347330312431,10249.980647965654,14035.988829410328,11894.4867542768,-2773.747923377853,1139.3763285915886,623.4094116386111,-23963.88017220333,0.0
-224.7217772908343,10244.82407512162,14030.62980451468,11888.532282170523,-2781.6792802234118,1136.8397234743154,623.5046831923115,-23960.081218999527,0.0
-224.304964243395,10239.369778672271,14025.080236511632,11886.186220160653,-2779.5594881535776,1138.2687967798213,627.1488201213522,-23944.230414252623,0.0
-221.85172173560952,10241.537206518955,14028.66482871961,11888.496555337886,-2773.759832322065,1144.4138119934978,630.8525017714554,-23916.911296229035,0.0
-218.0289506433807,10248.920751930738,14038.072894647525,11896.070643857069,-2770.830232045778,1149.2607522880057,637.4500568652086,-23897.57117082785,0.0
-215.68288863350818,10255.030040311776,14042.824563388333,11899.559964511347,-2770.6873247152275,1149.6061116701699,643.2020769198707,-23886.662577929153,0.0
-211.4909402706903,10259.72216433152,14047.731048403903,11905.300075621795,-2765.1615746006037,1154.0957836383016,648.7040091460692,-23893.498311907155,0.0
-211.55048499175305,10259.079081344044,14047.504778463865,11904.454540582703,-2766.1261990818202,1154.32205357834,644.3215176758504,-23914.70814154971,0.0
-214.99216986918026,10258.293091026015,14044.384635080176,11902.572927397121,-2767.1741861725245,1153.1549770455101,644.9884185517533,-23938.264033202136,0.0
-212.59847208245753,10261.48468807498,14047.540505296503,11908.205858009658,-2761.7317986673893,1159.7406231950506,653.2889526679012,-23945.09976718014,0.0
-211.93157120655468,10261.806229568716,14048.671854996695,11908.479763726547,-2761.1720782893995,1161.5626916595709,653.5033136637271,-23952.66194675511,0.0
-215.31371136291912,10256.113754235117,14041.800394186053,11900.369772717799,-2769.496430293972,1154.0124210288136,642.4875402671175,-23945.480853394944,0.0
-215.39707397240696,10253.55333122942,14037.977623093824,11895.963463359156,-2774.0456469831665,1151.7616305726415,642.5351760439678,-23927.77225335088,0.0
-209.54978236404452,10257.459464931137,14042.776927611483,11900.083958056699,-2768.841438362282,1156.8586586956133,656.397187107377,-23902.251385903382,0.0
-207.40617240578536,10260.817787199076,14045.396895338243,11902.739652616097,-2765.6260234248934,1158.9665418212348,659.9698703711422,-23883.208984107514,0.0
-208.87097254392913,10259.388713893568,14044.4084529686,11902.28711273602,-2765.6736592017432,1159.0379954865102,654.5393918102191,-23875.89689236101,0.0
-208.33507005436434,10259.543530168332,14043.289012212623,11901.715483413818,-2765.685568145956,1160.3003435730404,657.6238083612698,-23885.578864005813,0.0
-207.16799352153436,10263.3067565395,14045.88516205096,11904.454540582703,-2763.0656004191947,1164.4327472147957,663.9474577381342,-23901.941753353854,0.0
-205.7746470486659,10266.176812094724,14048.933851769372,11907.110235142103,-2761.7317986673893,1164.9448318159355,665.6266188721038,-23924.961742516716,0.0
-204.57184368319827,10267.522522790743,14051.291822723455,11909.277662988789,-2759.1356488290526,1168.029248366986,666.341155524857,-23938.83566252434,0.0
-206.6439999761821,10267.522522790743,14050.14856407905,11908.40831006127,-2759.838276537593,1167.1122596626196,664.8763553867132,-23945.349855008604,0.0
-206.7630894183076,10267.248617073854,14049.946112027439,11908.02722384647,-2760.481359525071,1168.267427251237,669.0206679726808,-23932.797827808576,0.0
-200.8562530888824,10271.15475077557,14054.280967720806,11912.493077926176,-2756.8134047076055,1172.828552884644,674.6535985852174,-23911.659451831296,0.0
-198.1171959199957,10275.1680649752,14057.305839550794,11916.184850632066,-2753.2883572206906,1176.7108686979354,679.5600836007884,-23888.627553724225,0.0
-200.98725147522046,10274.322529936107,14057.484473713983,11915.958580692028,-2753.7408971007676,1175.3175222250673,679.9292608713774,-23877.11160467069,0.0
-204.42893635264764,10270.178217350141,14052.947165969,11912.254899041925,-2756.9920388707937,1171.637658463389,676.0112182254483,-23881.017738372404,0.0
-202.3567800596638,10272.786276132689,14053.36397901644,11911.421272947047,-2757.9566633520103,1172.0663804550409,672.3908991848327,-23889.342090376977,0.0
-195.75922496591065,10280.503271982423,14060.580799209245,11918.459458976664,-2750.8708415455426,1176.7823223632108,677.7261061920555,-23900.965219928425,0.0
-196.47376161866367,10279.431467003293,14061.509696857825,11918.423732144027,-2751.2162009277067,1177.1991354106501,684.3355702300212,-23927.283986638166,0.0
-198.92700412644916,10274.322529936107,14056.972389112843,11913.767334956918,-2754.7531573588344,1177.5683126812391,681.5607862284969,-23950.1848863589,0.0
-200.47516687408077,10273.44126806438,14055.031231206198,11912.350170595624,-2756.0512322780023,1175.3532490577047,682.1800513275496,-23947.838824349026,0.0
-201.42788241108482,10274.155804717133,14057.66310787717,11917.078021448007,-2751.7521034172714,1177.7707647328527,679.833989317677,-23934.274536890935,0.0
-197.39075032303012,10280.07454999077,14063.141222214945,11923.961391202862,-2744.97591416033,1181.81980576512,683.9783019036447,-23913.874515454834,0.0
-193.47270767710089,10285.71938954752,14067.92861778839,11927.617437076116,-2739.807432372083,1186.4166582311645,688.980058472916,-23885.233504623648,0.0
-193.48461662131342,10285.683662714882,14067.14262747036,11925.890640165295,-2740.414788526923,1188.6674486873367,687.9797071590618,-23873.28883357846,0.0
-196.98584621980336,10281.086810248837,14061.735966797864,11918.268915869263,-2751.263836704557,1181.4029927176807,682.9898595340029,-23872.81247580996,0.0
-196.40230795338837,10282.241977837455,14063.081677493881,11920.841247819175,-2750.037215450664,1182.8082481347615,687.1103542315456,-23885.06677940467,0.0
-191.78163759891868,10288.422719883769,14068.797970715907,11927.510256578202,-2740.5100600806236,1191.0849643624845,697.3758641427644,-23901.358215087443,0.0
-187.16096724444893,10294.436736711106,14073.966452504152,11931.487843945195,-2737.6161866369735,1194.3241971882983,701.8298092782584,-23922.115504849917,0.0
-190.44783584711297,10294.722551372208,14073.85927200624,11930.963850399841,-2737.735276079099,1193.6453873681828,702.5443459310114,-23940.240917941417,0.0
-195.22332247634586,10290.804508726278,14068.928969102244,11927.010080921274,-2741.42704878499,1188.1672730304094,699.1622057746471,-23951.518688110704,0.0
-193.96097438981548,10292.340762529699,14070.2151350772,11928.33197372887,-2740.6648763553867,1188.7746291852495,699.9481960926753,-23936.191876909154,0.0
-190.2930195723498,10298.04514680751,14076.681691784615,11935.06052720896,-2733.150332557267,1194.6814655146748,702.9254321458131,-23913.82687967798,0.0
-187.47059979397525,10297.973693142234,14077.086595887842,11934.715167826796,-2732.495340625577,1195.9319046569926,704.5450485587199,-23893.700763958772,0.0
-184.18373119131124,10297.259156489481,14077.062777999416,11933.488546572904,-2732.8168821193153,1196.4678071465573,705.6525803704872,-23876.111253356834,0.0
-184.92208573248936,10295.961081570313,14075.836156745525,11933.46472868448,-2733.114605724629,1198.444691885841,707.6056472213455,-23868.882524219815,0.0
-190.0310227996737,10292.757575577138,14072.489743421796,11932.416741593774,-2733.995867596358,1198.6352349932417,705.0571331598597,-23889.234909879062,0.0
-193.49652556552599,10290.85214450313,14070.715310734127,11930.499401575553,-2738.080635461263,1195.4317290000654,703.5566061890783,-23916.089579078365,0.0
-190.01911385546114,10296.55652878094,14076.407786067726,11934.03635800668,-2735.7464823956034,1197.4205226835613,710.5471564418457,-23935.775063861714,0.0
-186.60124686645904,10300.879475530097,14081.183272696959,11939.323929237054,-2729.8991907872405,1203.0653622403106,717.1685294240239,-23949.38698709666,0.0
-188.14940961409067,10304.237797798036,14082.576619169828,11942.789432002906,-2727.2315872836293,1205.3399705849076,717.192347312449,-23950.327793689452,0.0
-190.76937734085183,10302.118005728202,14079.587474172477,11940.312371606695,-2727.5174019447304,1203.851352558339,715.2869162384409,-23939.050023520165,0.0
-189.05448937424453,10301.987007341864,14081.088001143258,11940.550550490945,-2729.256107799763,1201.2313848315778,714.9772836889146,-23921.56769341614,0.0
-186.8989704717728,10304.02343680221,14084.36296080171,11943.74214753991,-2726.505141686664,1201.6839247116548,712.7622200653801,-23893.74839973562,0.0
-185.82716549264325,10307.417485902788,14087.006746416897,11946.957562477299,-2721.431931452117,1208.0552098653693,715.5012772342668,-23870.847500014883,0.0
-186.9108794159854,10309.977908908484,14090.091162967947,11949.363169208233,-2718.4785132874044,1210.0559124930778,718.0021555189024,-23866.476917488882,0.0
-186.8989704717728,10309.34673486522,14089.555260478382,11948.017458512217,-2722.575190096522,1204.8993396490434,715.4179146247789,-23881.315461977716,0.0
-186.94660624862303,10312.28824408572,14091.97277615353,11950.970876676927,-2719.4788646012585,1206.399866619825,717.6091603598883,-23898.60724897434,0.0
-187.3872371844874,10315.074937031457,14094.211657665488,11954.067202172191,-2713.250486778095,1217.4990026259222,725.8739676433986,-23922.49659106472,0.0
-186.81560786228496,10314.277037769216,14090.85333539755,11951.554414943343,-2715.5131861784794,1219.5473410304808,732.5310674582145,-23931.702204941023,0.0
-185.9819817674064,10313.669681614376,14088.269094503426,11948.708177276543,-2717.99024657469,1216.629649698406,730.1254607272792,-23929.999225918626,0.0
-186.4226127032708,10311.549889544542,14086.530388648394,11947.362466580526,-2719.455046712834,1210.4131808194545,721.3009330657791,-23912.993253583103,0.0
-186.99424202547323,10310.811535003364,14087.280652133784,11948.017458512217,-2720.2886728077124,1209.1151059002864,716.3825391059955,-23889.746994480203,0.0
-185.7914386600056,10311.097349664466,14088.447728666615,11950.720788848465,-2716.0967244448943,1214.4145860748713,724.1352617883662,-23864.631031135934,0.0
-185.39844350099142,10311.311710660291,14089.68625886472,11954.031475339552,-2714.0007502634853,1217.3799131837966,731.9118023591619,-23846.577071709708,0.0
-183.06429043533146,10317.611542148732,14096.54581073115,11958.521147307685,-2710.451884888145,1219.999880910558,730.2088233367671,-23837.12137000494,0.0
-182.62365949946707,10320.338690373404,14097.2603473839,11956.317992628363,-2712.9884900054185,1218.5946254934768,731.8165308054614,-23851.424012004216,0.0
-182.80229366265533,10321.398586408322,14096.367176567961,11954.650740438605,-2714.4532901435623,1218.3564466092257,737.1517378126842,-23875.289536206168,0.0
-185.7199849947303,10322.029760451587,14096.843534336464,11953.97193061849,-2715.334552015291,1218.987620652491,736.7706515978826,-23895.963463359156,0.0
-187.39914612869995,10321.76776367891,14096.152815572135,11953.709933845816,-2716.608809046034,1219.1424369272543,736.5801084904817,-23909.873110199413,0.0
-187.63732501295098,10322.267939335838,14095.950363520522,11953.698024901601,-2716.846987930285,1217.320368462734,732.173799131838,-23913.243341411566,0.0
-184.99353939776466,10324.625910289924,14099.808861445388,11958.652145694023,-2711.4879630346372,1222.3221250320053,736.9254678726458,-23895.46328770223,0.0
-185.0888109514651,10323.20874592863,14100.57103387499,11959.98594744583,-2709.4038977974405,1223.2986584574344,735.6750287303279,-23877.635598216042,0.0
-186.27970537272017,10323.030111765442,14098.951417462084,11959.116594518311,-2711.225966261961,1221.9529477614162,737.1517378126842,-23859.426822515048,0.0
-184.26709380079907,10327.579328454634,14102.023925068923,11962.832185112627,-2706.295663357965,1226.1091692915963,740.5934226901114,-23839.931880839104,0.0
-185.24362722622826,10330.878106001512,14105.239340006312,11962.582097284165,-2707.5222846118577,1224.5490975997523,738.9380794445668,-23834.084589230744,0.0
-185.50562399890435,10330.759016559387,14105.441792057924,11963.415723379045,-2707.569920388708,1225.8352635747078,742.0224959956174,-23849.41140043229,0.0
-186.1010712095319,10328.0199593905,14102.917095884864,11963.201362383217,-2707.248378894969,1230.3487534312644,744.0827433443889,-23872.538570093067,0.0
-186.45833953590844,10323.899464692957,14098.260698697757,11958.890324578273,-2711.511780923062,1225.2636342525052,743.7254750180122,-23897.606897660487,0.0
-185.20790039359062,10323.220654872843,14096.998350611228,11957.604158603319,-2713.857842932935,1223.4415657879852,743.0823920305345,-23918.888180968315,0.0
-187.39914612869995,10321.851126288399,14094.747560155054,11955.496275477697,-2714.9296479120644,1225.2398163640803,743.5230229663989,-23930.320767412366,0.0
-189.12594303951983,10323.613650031855,14096.54581073115,11958.247241590796,-2711.0711499871977,1228.0265093098171,748.2627827629941,-23919.114450908353,0.0
-186.1963427632323,10324.959360727875,14098.177336088269,11958.140061092883,-2713.1552152243944,1225.3708147504183,748.3342364282695,-23906.19324643774,0.0
-182.7189310531675,10324.56636556886,14098.868054852597,11957.961426929696,-2712.750311121167,1224.1084666638878,747.393429835478,-23887.984470736745,0.0
-180.74204631388403,10327.448330068297,14101.261752639319,11959.831131171066,-2710.7615174376715,1223.763107281724,742.963302588409,-23879.91020656064,0.0
-181.11122358447312,10326.24552670283,14099.189596346336,11957.84233748757,-2712.6907664001046,1223.310567401647,744.0470165117512,-23890.711618961417,0.0
-180.849226811797,10328.412954549514,14100.880666424518,11961.522201249249,-2709.963618175431,1226.0734424589589,744.6900994992288,-23920.31725427382,0.0
-179.5630608368415,10330.949559666788,14103.095730048053,11963.296633936918,-2708.022460268785,1227.764512537141,745.7857223667836,-23956.484717847336,0.0
-180.58723003912087,10332.17618092068,14104.25089763667,11963.665811207507,-2706.962564233868,1229.8485777743374,748.9773194157472,-23995.022061319152,0.0
-180.8968625886472,10331.997546757493,14103.536360983917,11961.629381747161,-2709.8921645101555,1228.0265093098171,748.4890527030326,-24027.902656290004,0.0
-181.6947618508881,10333.319439565084,14104.596257018833,11962.867911945266,-2708.677452200475,1229.169767954222,749.6561292358626,-24055.19795642517,0.0
-180.90877153285976,10336.677761833025,14107.073317415043,11966.404868376394,-2704.8189542756086,1232.9687211580258,751.4186529793202,-24054.685871824033,0.0
-182.70702210895493,10338.416467688055,14109.25265420594,11968.143574231426,-2702.472892265736,1235.5291441637241,751.2400188161319,-24047.2546906354,0.0
-182.492661113129,10339.666906830376,14111.038995837824,11968.858110884179,-2701.734537724558,1235.0646953394346,748.3818722051196,-24034.190578834234,0.0
-180.55150320648323,10341.286523243281,14113.658963564585,11971.62098594149,-2699.245568384135,1234.6478822919953,748.3580543166945,-24037.07254333367,0.0
-181.61139924140025,10340.881619140055,14113.45651151297,11971.632894885703,-2700.138739200076,1234.4811570730196,752.7762726195509,-24071.65611732692,0.0
-185.66044027366752,10340.917345972694,14113.897142448835,11971.99016321208,-2700.0315587021632,1235.2671473910482,750.8708415455427,-24111.610625160025,0.0
-185.55325977575455,10343.966035691106,14117.303100493626,11975.705753806395,-2695.7919745624954,1240.3760844582323,758.0638438499234,-24142.454790670534,0.0
-183.18337987745696,10345.407017940823,14118.68453802228,11976.813285618164,-2695.387070459268,1239.8401819686674,761.5412555599884,-24135.428513585128,0.0
-183.98127913969788,10344.466211348034,14118.089090811654,11977.17055394454,-2694.767805360216,1239.6258209728417,759.2190114385409,-24090.174525577433,0.0
-185.18408250516552,10341.953424119185,14114.575952268951,11973.859867453451,-2697.173412091151,1238.0062045599348,753.3240840533282,-24043.539100041085,0.0
-184.43381901977477,10339.345365336636,14111.789259323214,11971.823437993105,-2698.05467396288,1237.2083052976939,755.9440517800894,-23977.58736699198,0.0
-181.48040085506221,10338.559375018607,14111.598716215814,11972.335522594245,-2696.8756884858376,1239.328097367528,760.1002733102697,-23905.50252767341,0.0
-180.74204631388403,10340.059901989389,14111.836895100065,11971.966345323655,-2696.9114153184746,1240.911986947797,759.5286439880672,-23847.887055573086,0.0
-181.77812446037595,10338.476012409119,14108.430937055275,11968.643749888353,-2701.4010872866065,1239.1970989811898,760.0407285892069,-23816.697530680416,0.0
-183.61210186910878,10334.343608767364,14103.631632537616,11964.499437302386,-2705.6883072031246,1237.684663066196,760.7314473535348,-23794.67789283141,0.0
-182.8856562721432,10331.56882476584,14099.880315110664,11961.879469575624,-2708.5583627583496,1235.7673230479752,757.9209365193728,-23794.63025705456,0.0
-182.6712952763173,10331.461644267927,14099.094324792635,11960.402760493267,-2709.189536801615,1233.278353707552,755.3605135136745,-23797.536039442424,0.0
-183.2191067100946,10331.223465383677,14101.666656742545,11962.879820889479,-2706.92683740123,1233.6951667549913,757.6946665793345,-23807.1941931988,0.0
-184.93399467670193,10333.498073728273,14104.751073293597,11964.630435688723,-2708.129640766698,1235.8387767132506,760.540904246134,-23811.481413115318,0.0
-185.00544834197723,10332.04518253434,14101.750019352034,11961.391202862911,-2712.2263175758153,1232.9925390464507,758.8260162795268,-23814.577738610584,0.0
-186.2677964285076,10330.616109228837,14099.070506904209,11958.73550830351,-2712.6788574558923,1231.7182820157077,757.4564876950834,-23803.800144098223,0.0
-187.57778029188822,10330.437475065648,14098.677511745196,11957.866155375994,-2712.5240411811287,1230.313026598627,756.3132290506785,-23790.47403552438,0.0
-185.19599144937806,10332.914535461858,14100.404308656016,11960.748119875432,-2710.0469807849186,1232.2303666168475,755.9202338916642,-23773.75387784996,0.0
-183.65973764595898,10333.295621676662,14101.35702419302,11962.808367224203,-2707.4508309465823,1236.3389523701776,761.100624624124,-23765.179438016923,0.0
-182.89756521635573,10334.295972990514,14102.690825944826,11964.725707242424,-2705.4858551515113,1239.8163640802425,762.8988752002191,-23764.274358256767,0.0
-186.50597531275864,10337.142210657314,14105.108341619973,11964.65425357715,-2705.795487701038,1239.2328258138275,761.4936197831381,-23784.97210329818,0.0
-187.04187780232343,10336.97548543834,14104.989252177847,11964.499437302386,-2706.5695690748535,1237.3869394608819,753.4312645512412,-23809.38543893391,0.0
-187.47059979397525,10337.082665936252,14105.7037888306,11965.785603277342,-2704.9023168850968,1236.6604938639164,755.8606891706015,-23827.72521302124,0.0
-186.8989704717728,10339.154822229235,14108.478572832124,11968.024484789301,-2702.7587069268375,1239.506731530716,766.9121893998487,-23837.85972454612,0.0
-186.5417021453963,10343.489677922604,14112.110800816954,11971.323262336178,-2699.2693862725596,1244.3774897136495,768.4365342590552,-23843.56410882393,0.0
-185.41035244520396,10345.740468378775,14113.146878963445,11972.764244585895,-2697.9832202976045,1248.2240786943032,770.2586027235754,-23830.047457142686,0.0
-182.70702210895493,10344.847297562834,14113.623236731946,11974.264771556678,-2694.910712690766,1248.4027128574917,770.961230432116,-23804.62186124889,0.0
-183.30246931958249,10345.311746387124,14113.920960337262,11974.062319505063,-2696.2683323309975,1248.6885275185928,769.9132433414115,-23781.768597305007,0.0
-183.61210186910878,10344.049398300593,14112.849155358132,11972.561792534283,-2697.5664072501654,1247.8191745910767,770.3300563888508,-23768.81166600175,0.0
-182.57602372261687,10345.4784716061,14114.778404320565,11975.622391196908,-2695.1846184076553,1249.1410673986697,772.0330354112457,-23767.978039906873,0.0
-183.18337987745696,10345.573743159799,14112.884882190769,11974.455314664077,-2695.8634282277703,1249.081522677607,774.80781941277,-23781.399420034417,0.0
-182.75465788580513,10343.418224257328,14108.669115939527,11969.870371142246,-2699.1264789420093,1248.366986024854,775.9272601687497,-23798.560208644703,0.0
-186.1487069863821,10342.132058282372,14106.573141758116,11967.298039192334,-2701.889353999321,1246.533008616121,770.615871049952,-23812.076860325946,0.0
-189.26885037007042,10340.941163861118,14106.132510822254,11965.988055328955,-2703.7352403522664,1244.8062117053014,768.9962546370451,-23822.79491011724,0.0
-187.42296401712505,10341.36988585277,14106.406416539141,11965.702240667853,-2703.47324357959,1242.6983285796798,766.7335552366604,-23823.52135571421,0.0
-186.20825170744487,10340.226627208365,14104.846344847298,11963.96353481282,-2705.0809510482845,1241.2930731625986,769.4487945171221,-23810.54060652253,0.0
-187.55396240346312,10340.15517354309,14105.263157894737,11964.868614572973,-2704.330687562894,1244.5323059884126,772.5213021239601,-23794.856526994598,0.0
-187.86359495298944,10341.441339518045,14106.596959646542,11966.893135089107,-2702.2942581025477,1245.1396621432527,766.9479162324864,-23777.95773515699,0.0
-186.18443381901977,10343.584949476304,14108.96683954484,11971.025538730864,-2698.5667585640194,1247.4142704878498,767.1265503956747,-23769.871562036667,0.0
-187.37532824027485,10343.09668276359,14108.954930600628,11970.906449288737,-2698.840664280908,1248.8433437933559,770.8778678226282,-23771.407815840084,0.0
-187.57778029188822,10343.989853579531,14109.193109484879,11972.252159984755,-2698.245217070281,1249.6174251671719,778.1899595691344,-23784.03129670539,0.0
-187.81595917613924,10345.407017940823,14110.264914464007,11971.33517128039,-2700.2221018095643,1248.7837990722933,775.5342650097356,-23803.347604218146,0.0
-189.12594303951983,10348.086530388648,14112.289434980143,11973.050059246996,-2697.9594024091793,1251.546674129605,779.3570361019644,-23818.781595917615,0.0
-186.0534354326817,10346.848000190543,14112.19416342644,11973.347782852312,-2696.506511215248,1253.8212824742022,782.3699989877398,-23830.67863118595,0.0
-186.81560786228496,10345.6690147135,14109.300289982792,11970.239548412836,-2700.4483717496023,1251.4037667990544,780.2740248063308,-23836.216290244785,0.0
-187.61350712452588,10343.763583639491,14107.132862136106,11967.286130248121,-2702.520528042586,1248.6170738533176,776.6179789330777,-23830.261818138515,0.0
-189.01876254160686,10341.524702127534,14104.941616400998,11964.832887740338,-2706.057484473714,1244.1035839967608,770.2228758909379,-23814.542011777943,0.0
-188.64958527101777,10342.572689218237,14106.63268647918,11966.178598436356,-2706.31948124639,1240.2331771276818,765.7212949785936,-23793.32027319118,0.0
-185.60089555260478,10346.64554813893,14112.61097647388,11970.834995623463,-2703.7352403522664,1245.2944784180158,776.1178032761505,-23783.6621194348,0.0
-185.44607927784162,10347.169541684283,14113.444602568758,11973.681233290263,-2698.340488623981,1252.4993896666092,777.4516050279562,-23783.959843040113,0.0
-187.55396240346312,10344.894933339683,14110.64600067881,11972.168797375269,-2697.780768245991,1252.023031898107,780.321660583181,-23803.21660583181,0.0
-188.24468116779107,10346.562185529441,14111.693987769513,11973.181057633336,-2697.49495358489,1253.5831035899512,781.4768281717984,-23820.317849721032,0.0
-190.44783584711297,10347.264813237982,14111.134267391524,11970.608725683423,-2701.198635234993,1250.641594369451,780.5002947463693,-23838.65762380836,0.0
-191.99599859474458,10345.871466765115,14109.62183147653,11969.19156132213,-2703.1278841974263,1248.5694380764673,777.1538814226425,-23851.614555111617,0.0
-188.68531210365543,10342.941866488827,14106.227782375952,11966.452504153243,-2704.9618616061593,1246.223376066595,772.5689379008104,-23856.378132796635,0.0
-186.50597531275864,10342.703687604575,14105.834787216938,11965.249700787776,-2706.2599365253272,1243.91304088936,773.0333867250998,-23845.35045045581,0.0
-184.71963368087603,10345.89528465354,14110.157733966094,11968.95338243788,-2702.2228044372728,1248.652800685955,777.6659660237821,-23834.799125883495,0.0
-184.62436212717563,10345.454653717674,14110.46736651562,11969.167743433707,-2702.5562548752237,1248.4860754669794,780.1430264199927,-23821.09193109485,0.0
-184.73154262508857,10345.264110610275,14109.633740420742,11968.870019828391,-2703.4851525238028,1248.8790706259936,781.3458297854603,-23813.970382455744,0.0
-186.9346973044105,10346.883727023182,14108.835841158503,11968.977200326304,-2702.5681638194364,1250.2128723777992,778.5234100070859,-23814.387195503183,0.0
-187.79214128771414,10346.204917203064,14108.954930600628,11970.108550026496,-2699.9124692600376,1252.213575005508,780.345478471606,-23826.712952763173,0.0
-188.41140638676677,10341.97724200761,14104.58434807462,11967.393310746036,-2702.9254321458134,1251.046498472678,781.6792802234118,-23848.958860552215,0.0
-190.32874640498747,10339.559726332462,14102.1906502879,11967.000315587022,-2704.2235070649813,1249.6412430555968,782.8701746446668,-23872.64575059098,0.0
-191.75781971049355,10340.81016547478,14102.083469789986,11966.035691105804,-2704.068690790218,1249.2363389523703,782.7629941467538,-23883.316164605425,0.0
-192.12699698108264,10341.786698900209,14102.119196622623,11965.082975568801,-2703.961510292305,1249.9985113819735,779.976301201017,-23889.604087149655,0.0
-192.62717263800977,10343.620676308941,14103.17909265754,11963.67772015172,-2706.7362942938294,1248.1049892521778,780.3692963600312,-23886.210038049077,0.0
-189.87620652491051,10346.121554593577,14105.7037888306,11963.082272941092,-2707.6771008866212,1248.9981600681192,784.4659731691487,-23877.385510387576,0.0
-190.5669252892385,10345.871466765115,14107.56158412776,11965.72605855628,-2704.4497770050198,1251.332313133779,785.1447829892641,-23863.82122292948,0.0
-190.7574683966393,10347.240995349557,14108.061759784687,11967.357583913397,-2703.139793141639,1251.8801245675565,784.9661488260758,-23855.568324590182,0.0
-190.76937734085183,10349.40842319624,14110.264914464007,11969.870371142246,-2701.925080831959,1252.4636628339715,784.9542398818633,-23857.807206102145,0.0
-190.18583907443684,10351.421034768162,14111.646351992664,11970.977902954013,-2700.8175490201916,1254.9169053417568,786.9549425095718,-23873.312651466884,0.0
-191.56727660309275,10349.801418355255,14109.25265420594,11970.620634627636,-2700.674641689641,1256.8818811368278,788.9556451372804,-23890.080444918156,0.0
-192.50808319588427,10347.764988894909,14107.918852454135,11970.965994009799,-2700.615096968578,1254.9049963975444,787.4670271107115,-23908.765578387647,0.0
-193.6632507845017,10347.633990508572,14107.52585729512,11970.227639468621,-2701.067636848655,1253.29728892885,787.7409328276001,-23922.401319511016,0.0
-193.46079873288832,10349.68232891313,14109.883828249205,11972.633246199557,-2697.637860915441,1257.96559506017,788.777010974092,-23927.879433848793,0.0
-191.2457351093539,10352.076026699853,14112.968244800257,11972.573701478495,-2698.4595780661066,1259.18030736985,790.8015314902257,-23922.615680506842,0.0
-190.8765578387648,10350.551681840647,14112.075073984315,11970.037096361222,-2701.7940824456205,1256.1435265956495,786.1570432473309,-23914.029331729595,0.0
-189.50702925432145,10349.575148415217,14108.990657433264,11967.822032737688,-2703.139793141639,1255.3932631102589,785.5020513156406,-23899.20269618497,0.0
-184.93399467670193,10356.482336058498,14115.433396252256,11974.491041496716,-2695.2917989055677,1263.0388052947164,793.7787675433634,-23885.316867233138,0.0
-177.06218255220583,10365.533133660036,14124.079289750567,11985.256727064861,-2683.525762023568,1276.1386439285225,812.4758099570682,-23879.12421624261,0.0
-173.95394811273005,10368.951000649038,14128.068786061773,11991.330288613262,-2677.4641094193794,1282.5694738032998,815.8936769460703,-23887.817745517772,0.0
-173.20368462733936,10372.011599311663,14132.1773718151,11995.74850691612,-2675.0704116326565,1284.8798089805348,817.0964803115379,-23903.859093372077,0.0
-177.27654354803175,10368.617550211085,14127.902060842796,11988.626958277015,-2682.2157781601873,1278.5799774920954,809.0698519122788,-23930.594673129253,0.0
-190.3882911260502,10355.553438409917,14114.099594500449,11972.526065701644,-2699.507565156811,1260.3712017911052,790.6228973270374,-23956.67526095474,0.0
-200.02262699400384,10345.276019554485,14103.64354148183,11961.748471189287,-2711.1306947082603,1246.7950053887973,778.094688015434,-23965.523606504667,0.0
-205.20301772646346,10338.440285576482,14097.2603473839,11956.758623564228,-2715.7990008395805,1242.1386082016897,776.3559821604016,-23963.308542881132,0.0
-208.33507005436434,10337.011212270976,14097.319892104964,11957.449342328557,-2715.4536414574163,1242.507785472279,775.6414455076485,-23958.60450991717,0.0
-205.9651901560667,10334.867602312717,14094.973830095092,11954.543559940692,-2718.442786454767,1240.7928975056716,773.8908307084035,-23948.434271559654,0.0
-205.1196551169756,10334.808057591654,14095.402552086744,11955.12709820711,-2718.2403344031536,1241.948065094289,773.188202999863,-23942.42025473232,0.0
-209.25205875873073,10333.879159943075,14094.068750334938,11952.38804103822,-2720.0028581466113,1239.2566437022526,771.1160467068792,-23947.005198254148,0.0
-212.93192252040893,10330.830470224662,14089.400444203618,11947.386284468948,-2725.5286082612342,1234.3739765751068,769.8179717877111,-23966.464413097456,0.0
-213.89654700162558,10325.95971204173,14082.481347616125,11940.19328216457,-2731.57835192121,1230.4202070965398,768.2817179842921,-23988.079146843236,0.0
-215.1708040323685,10325.483354273227,14081.207090585383,11940.395734216183,-2731.1019941527084,1230.9322916976796,766.9240983440613,-24008.431532502487,0.0
-219.23175400884836,10322.315575112689,14078.90866435236,11937.513769716745,-2733.948231819508,1227.2524279360014,760.624266855622,-24026.10440571391,0.0
-225.126681394061,10315.741837907359,14072.549288142858,11931.035304065119,-2740.6529674111744,1219.7974288589446,756.4918632138667,-24039.656784227795,0.0
-228.31827844302464,10311.930975759344,14069.274328484407,11927.974705402492,-2744.428102726553,1215.7602967708897,754.7650663030469,-24035.15520331545,0.0
-228.1039174471987,10311.418891158204,14068.72651705063,11926.23599954746,-2746.3930785216235,1214.9743064528614,751.9069196920346,-24032.17796726231,0.0
-228.46118577357524,10308.882286040931,14066.332819263907,11923.723212318611,-2748.1913290977186,1215.5221178866386,752.1570075204983,-24026.30685776552,0.0
-231.22406083088703,10306.691040305821,14063.105495382306,11920.63879576756,-2751.573469254083,1213.2594184862542,748.6319600335831,-24027.235755414105,0.0
-230.9144282813607,10307.10785335326,14061.90269201684,11919.04299724308,-2752.8477262848264,1210.4846344847297,745.2498198772188,-24033.273590129866,0.0
-232.65313413639313,10301.153381246986,14055.424226365212,11913.374339797905,-2756.7062242096927,1209.5676457803634,742.2964017125062,-24052.42317242365,0.0
-235.09446769996606,10296.330258840902,14050.863100731805,11912.207263265076,-2756.884858372881,1207.614578929505,732.066618633925,-24070.10795457929,0.0
-239.71513805443576,10291.93585842647,14046.861695476387,11905.347711398645,-2765.9594738628443,1197.9802430615514,727.2077693952042,-24088.70972543929,0.0
-247.265408685193,10287.803454784715,14043.479555320022,11899.05978885442,-2772.961933059825,1191.5613221309864,728.6368427007104,-24109.10974687539,0.0
-252.10044003548862,10282.980332378633,14038.811249188702,11895.653830809628,-2776.2964374393387,1187.8457315366704,723.5993592988013,-24121.280687860617,0.0
-257.13792343739766,10280.789086643523,14033.785674731007,11893.641219237708,-2779.892938591529,1184.3564108823932,713.7744803234469,-24121.209234195343,0.0
-261.7228669592297,10274.953703979372,14026.390220375013,11889.03245782745,-2775.9868048898124,1188.3697250820228,713.214759945457,-24112.730065916003,0.0
