EEG 1,EEG 2,EEG 3,EEG 4,EEG 5,EEG 6,EEG 7,EEG 8,Trigger
1371.969918006919,-1833.5010509643266,-881.7025026646262,-6808.772128306965,-10433.259299396812,-9319.487200862206,-5463.2877022287585,-12080.361555546293,0.0
1374.6017946778927,-1840.6345085476446,-886.7042592338976,-6809.617663346055,-10430.698876391112,-9315.461977718365,-5466.133939895559,-12067.32126163355,0.0
1374.2683442399414,-1836.537831738527,-882.3813124847417,-6807.354963945671,-10429.627071411984,-9312.889645768453,-5461.644267927427,-12070.6914928457,0.0
1374.970971948482,-1837.15709683758,-887.4783406077134,-6810.725195157823,-10433.6284766674,-9314.282992241322,-5460.620098725147,-12075.919519355011,0.0
1380.591993616806,-1834.5728559434563,-885.4300022031547,-6807.688414383623,-10431.270505713315,-9313.818543417034,-5455.880338928552,-12082.362258174,0.0
1385.9510185124539,-1832.3339744314967,-883.7627500133975,-6803.841825402968,-10426.828469522035,-9310.043408101654,-5453.379460643917,-12090.829517509124,0.0
1378.9842861481116,-1830.4999970227639,-882.3574945963165,-6803.937096956669,-10425.161217332277,-9306.530269558953,-5453.1770085923035,-12099.689772003261,0.0
1379.1391024228747,-1827.1416747548244,-878.1179104566485,-6801.781578054197,-10423.827415580472,-9307.280533044343,-5457.261776457208,-12098.677511745194,0.0
1376.4357720866255,-1827.0583121453367,-877.8440047397598,-6803.746553849268,-10427.245282569473,-9313.949541803371,-5463.275793284547,-12094.437927605528,0.0
1376.5667704729638,-1828.1777529013164,-877.439100636533,-6799.614150207513,-10423.220059425632,-9307.852162366546,-5452.474380883763,-12081.8859004055,0.0
1376.7930404130022,-1830.8334474607154,-882.0597709910028,-6803.47264813238,-10425.851936096604,-9306.125365455724,-5450.17595465074,-12068.29779505898,0.0
1379.1986471439375,-1827.0821300337618,-881.3928701150999,-6804.211002673557,-10426.14965970192,-9302.909950518335,-5450.652312419243,-12055.448044253637,0.0
1379.579733358739,-1824.6169785817638,-872.3777993461989,-6791.516068142978,-10411.263479436231,-9296.276668591945,-5448.318159353582,-12053.483068458565,0.0
1376.8883119667025,-1826.4628649347092,-875.0334939055978,-6790.313264777511,-10408.310061271517,-9298.039192335404,-5453.772455802931,-12056.746119172803,0.0
1374.7089751758056,-1823.1640873878325,-874.2355946433569,-6794.755300968793,-10417.94439713947,-9305.196467807147,-5450.616585586605,-12070.941580674165,0.0
1372.9583603765607,-1822.4733686235045,-868.424029867632,-6793.2785918864365,-10419.349652556552,-9305.803823961987,-5455.86842998434,-12080.15910349468,0.0
1374.4231605147045,-1825.3910599555795,-878.0107299587355,-6800.828862517194,-10420.266641260918,-9300.504343787401,-5448.818335010509,-12089.68625886472,0.0
1377.5552128426054,-1826.7248617073851,-884.5844671640635,-6803.865643291394,-10421.112176300008,-9300.135166516811,-5446.472273000637,-12089.090811654092,0.0
1380.0322732388158,-1830.071275031112,-884.8583728809522,-6801.102768234082,-10414.383622819918,-9298.563185880756,-5455.189620164224,-12085.541946278752,0.0
1381.9257953686115,-1830.869174293353,-879.5827105947922,-6794.231307423441,-10404.153839741339,-9293.656700865184,-5451.354940127783,-12076.765054394102,0.0
1383.6168654467938,-1820.5917554379216,-868.2096688718061,-6789.00328091413,-10410.453671229776,-9296.038489707695,-5449.818686324364,-12061.02143014511,0.0
1384.5457630953726,-1813.1486653050774,-862.5171935382069,-6791.361251868216,-10419.945099767181,-9300.58770639689,-5451.688390565734,-12047.409506910166,0.0
1378.5912909890974,-1817.9479698227353,-865.7326084755956,-6795.195931904657,-10421.683805622213,-9299.182450979808,-5445.4719216867825,-12053.232980630102,0.0
1377.0431282414656,-1828.3206602318671,-878.475178783025,-6802.793838312264,-10420.219005484068,-9299.265813589296,-5450.473678256054,-12060.27116665972,0.0
1381.5089823211724,-1829.9998213658369,-880.7736050160473,-6801.23376662042,-10416.479597001327,-9300.31380068,-5452.093294668961,-12068.77415282748,0.0
1381.830523814911,-1828.7136553908813,-875.5693963951626,-6793.9216748739145,-10413.490452003976,-9299.718353469372,-5448.068071525118,-12084.148599805883,0.0
1382.9976003477411,-1828.8684716656444,-874.5214093044581,-6794.32657897714,-10411.69220142788,-9298.015374446979,-5450.914309191918,-12090.56752073645,0.0
1381.6876164843604,-1825.4982404534924,-875.6170321720127,-6799.9595095896775,-10416.467688057115,-9300.432890122127,-5458.90521075854,-12088.554909164528,0.0
1383.2476881762045,-1826.308048659946,-877.8559136839723,-6800.292960027629,-10415.22915785901,-9296.229032815096,-5450.068774152827,-12084.255780303798,0.0
1385.1293013617876,-1817.8884251016725,-864.4345335564275,-6787.490844999137,-10406.64280908176,-9289.94111027087,-5439.958080516371,-12072.215837704907,0.0
1382.3187905276259,-1815.5661809802252,-863.3865464657231,-6791.3136160913655,-10417.301314151993,-9299.146724147171,-5441.684877427191,-12064.486932910962,0.0
1385.1650281944253,-1819.6390399009174,-873.7592368748548,-6796.577369433313,-10418.742296401711,-9302.12396020031,-5450.1164099296775,-12054.912141764073,0.0
1385.0459387523,-1814.0537450652312,-872.5802513978123,-6792.075788520969,-10411.978016088982,-9295.347770943366,-5453.67718424923,-12050.672557624403,0.0
1383.2595971204173,-1819.5556772914297,-874.2713214759945,-6788.276835317165,-10400.759790640761,-9290.488921704646,-5449.902048933851,-12055.388499532573,0.0
1381.3422571021965,-1825.331515234517,-875.5693963951626,-6793.052321946398,-10409.655771967535,-9301.492786157043,-5457.464228508822,-12068.714608106417,0.0
1382.8546930171906,-1819.1150463555653,-867.3164980558648,-6792.6712357315955,-10413.74053983244,-9301.683329264444,-5453.16509964809,-12081.349997915933,0.0
1382.3187905276259,-1816.2211729119156,-867.125954948464,-6791.527977087191,-10414.038263437755,-9298.777546876581,-5445.317105412019,-12092.175228205142,0.0
1378.8532877617733,-1816.042538748727,-865.8040621408709,-6789.372458184719,-10411.346842045717,-9295.097683114904,-5445.781554236309,-12089.376626315194,0.0
1377.221762404654,-1823.890532984798,-870.7820008217171,-6789.813089120584,-10408.965053203208,-9295.240590445454,-5447.520260091342,-12085.196586896587,0.0
1380.0203642946035,-1823.7595345984603,-870.2580072763649,-6785.073329323988,-10406.702353802824,-9295.91940026557,-5448.234796744095,-12071.66802627113,0.0
1379.5320975818888,-1824.6169785817638,-871.0439975943932,-6787.812386492875,-10409.477137804348,-9297.03884102155,-5447.829892640868,-12058.246646143587,0.0
1380.4848131188928,-1824.8313395775897,-871.687080581871,-6789.670181790033,-10410.858575333004,-9298.289280163868,-5448.222887799882,-12051.351367444518,0.0
1384.9506671985996,-1819.234135797691,-868.6860266403081,-6787.609934441262,-10408.190971829392,-9292.430079611293,-5446.186458339536,-12051.291822723455,0.0
1383.0571450688037,-1820.9847505969358,-869.4005632930613,-6789.527274459483,-10410.60848750454,-9291.644089293264,-5445.97209734371,-12059.973443054405,0.0
1382.4616978581764,-1821.0681132064235,-868.4002119792069,-6788.419742647716,-10410.108311847613,-9293.835335028374,-5442.47086774522,-12073.061372743998,0.0
1384.4266736532472,-1818.7935048618262,-865.9826963040591,-6785.609231813553,-10406.142633424834,-9294.930957895927,-5443.304493840098,-12080.635461263182,0.0
1378.3173852722086,-1814.9469158811726,-863.600907461549,-6785.740230199892,-10407.845612447229,-9294.692779011677,-5440.220077289047,-12088.352457112913,0.0
1376.0070500949737,-1808.754264890646,-861.397752782227,-6783.322714524744,-10404.2133844624,-9288.607308519064,-5435.825676874616,-12087.828463567563,0.0
1376.507225751901,-1811.1479626773687,-864.0177205089882,-6784.549335778636,-10406.023543982708,-9290.465103816221,-5443.1377686211235,-12085.48240155769,0.0
1377.5552128426054,-1815.780541976051,-864.6131677196158,-6782.6319957604155,-10404.261020239252,-9290.453194872009,-5444.674022424541,-12074.585717603204,0.0
1378.5079283796094,-1817.9241519343102,-865.9707873598466,-6787.490844999137,-10409.643863023322,-9295.574040883404,-5456.249516199141,-12060.330711380782,0.0
1378.305476327996,-1821.8660124686644,-875.1764012361483,-6792.933232504272,-10412.835460072287,-9296.25285070352,-5448.901697619997,-12051.279913779243,0.0
1381.54470915381,-1818.329056037537,-874.842950798197,-6790.610988382825,-10410.155947624462,-9293.716245586247,-5445.495739575208,-12046.337701931036,0.0
1380.615811505231,-1816.7808932899054,-872.4135261788366,-6788.586467866691,-10412.775915351225,-9293.561429311485,-5443.5903085012,-12050.434378740152,0.0
1381.3898928790468,-1816.3521712982536,-871.7228074145087,-6790.396627386999,-10414.836162699996,-9291.108186803698,-5437.445293287524,-12058.723003912088,0.0
1381.5328002095973,-1814.7325548853466,-865.4706117029194,-6788.872282527793,-10411.72792826052,-9290.846190031023,-5443.757033720176,-12071.036852227864,0.0
1380.6872651705062,-1808.6589933369455,-856.1459083844921,-6782.346181099314,-10407.57170673034,-9289.845838717169,-5449.544780607475,-12082.207441899238,0.0
1382.3783352486885,-1810.3500634151278,-861.4692064475023,-6785.371052929302,-10406.59517330491,-9287.988043420011,-5439.005364979367,-12084.029510363758,0.0
1381.9377043128243,-1814.029927176806,-865.5420653681948,-6785.0495114355635,-10401.950685062016,-9288.881214235953,-5429.918840545191,-12083.005341161479,0.0
1379.841730131415,-1819.5080415145794,-866.8163223989377,-6779.630941818853,-10395.281676302986,-9284.986989478448,-5431.026372356959,-12068.476429222166,0.0
1382.0448848107371,-1813.3034815798405,-858.0513394585003,-6772.068762243884,-10392.471165468825,-9282.414657528536,-5435.289774385052,-12047.647685794416,0.0
1384.2718573784841,-1806.8845606492757,-852.6684966744273,-6772.545120012385,-10392.209168696148,-9280.806950059843,-5435.706587432491,-12035.405291143914,0.0
1383.0571450688037,-1810.6477870204417,-860.5879445757736,-6785.323417152453,-10402.355589165243,-9286.213610732339,-5436.159127312568,-12040.526137155312,0.0
1383.3310507856925,-1812.5294002060245,-865.1490702091805,-6787.252666114885,-10402.867673766383,-9287.654592982059,-5440.172441512197,-12047.290417468039,0.0
1381.9853400896743,-1813.875110902043,-865.9469694714214,-6780.917107793809,-10393.983601383818,-9279.199242591147,-5433.622522195295,-12059.520903174329,0.0
1385.891473791391,-1807.587188357816,-859.3613233218808,-6774.307643755842,-10385.12334688968,-9270.839163753937,-5428.215861522797,-12068.809879660119,0.0
1385.760475405053,-1807.1465574219517,-860.2902209704598,-6783.656164962696,-10400.33106864911,-9282.629018524363,-5431.859998451838,-12079.635109949328,0.0
1378.198295830083,-1813.9346556231055,-868.054852597043,-6791.5041591987665,-10413.264182063938,-9291.060551026847,-5439.148272309918,-12081.766810963374,0.0
1376.3285915887127,-1815.2565484306988,-870.2341893879398,-6793.659678101238,-10414.39553176413,-9288.881214235953,-5437.230932291697,-12077.015142222564,0.0
1379.8655480198404,-1812.3388570986237,-864.6608034964661,-6787.883840158151,-10408.643511709468,-9288.369129634813,-5446.722360829101,-12062.236142454789,0.0
1380.4252683978302,-1813.3392084124782,-860.1115868072716,-6779.678577595703,-10402.188863946267,-9288.13095075056,-5445.329014356232,-12051.089370671843,0.0
1381.1636229390083,-1818.7577780291888,-870.3532788300653,-6790.015541172197,-10408.488695434706,-9289.833929772956,-5434.920597114462,-12042.074299902943,0.0
1380.246634234642,-1821.6754693612636,-876.7007460953549,-6793.647769157025,-10410.965755830917,-9290.215015987756,-5435.00395972395,-12044.551360299152,0.0
1379.3772813071255,-1819.3770431282414,-869.6625600657374,-6787.383664501223,-10408.345788104156,-9287.42832304202,-5435.861403707255,-12049.719842087401,0.0
1381.782888038061,-1815.4709094265247,-866.3399646304357,-6782.846356756241,-10402.99867215272,-9287.761773479971,-5441.148974937627,-12059.235088513227,0.0
1383.5811386141563,-1813.1010295282272,-865.9588784156341,-6783.822890181671,-10402.212681834691,-9292.33480805759,-5451.962296282622,-12071.525118940579,0.0
1381.5923449306601,-1811.4099594500449,-863.9224489552878,-6781.119559845422,-10401.867322452526,-9290.667555867834,-5445.46001274257,-12081.588176800185,0.0
1380.9373529989698,-1805.0505832405427,-855.7410042812654,-6773.700287601003,-10395.067315307162,-9283.331646232902,-5438.838639760392,-12077.58677154477,0.0
1383.128598734079,-1803.7525083213745,-857.8012516300367,-6779.761940205191,-10398.294639188762,-9280.926039501968,-5431.478912237035,-12075.324072144384,0.0
1384.9268493101742,-1808.3612697316319,-863.1364586372595,-6784.692243109186,-10404.177657629762,-9285.022716311085,-5432.66980665829,-12067.773801513627,0.0
1384.831577756474,-1816.6856217362051,-871.4608106418325,-6787.979111711851,-10403.570301474922,-9285.630072465925,-5435.825676874616,-12052.61371553105,0.0
1383.2000523993545,-1819.674766733555,-875.5098516740999,-6794.731483080367,-10410.453671229776,-9292.251445448104,-5445.400468021508,-12041.0858575333,0.0
1380.794445668419,-1813.6369320177919,-863.3031838562351,-6785.251963487177,-10403.451212032796,-9287.952316587372,-5447.23444543024,-12037.810897874848,0.0
1382.4140620813262,-1812.993849030314,-857.3487117499599,-6780.607475244283,-10400.628792254422,-9284.855991092109,-5442.851953960021,-12046.421064540522,0.0
1382.9380556266783,-1810.6239691320166,-854.3119309757593,-6777.487331860594,-10399.342626279466,-9290.512739593072,-5442.4946856336455,-12058.27046403201,0.0
1379.9608195735407,-1806.8131069840001,-852.7875861165528,-6772.390303737621,-10394.114599770157,-9288.666853240125,-5435.551771157729,-12072.69219547341,0.0
1381.485164432747,-1808.3255428989942,-858.0156126258627,-6775.260359292846,-10392.49498335725,-9282.80765268755,-5434.30133201541,-12080.754550705307,0.0
1387.7849959211867,-1808.337451843207,-860.659398241049,-6781.214831399122,-10397.06801793487,-9284.76071953841,-5438.171738884489,-12079.468384730351,0.0
1388.701984625553,-1811.540957836383,-861.6478406106907,-6785.275781375602,-10402.069774504142,-9287.559321428358,-5443.26876700746,-12074.014088281003,0.0
1378.4483836585468,-1813.0653026955895,-862.1956520444679,-6779.071221440863,-10397.615829368648,-9286.35651806289,-5442.077872586206,-12064.927563846826,0.0
1376.531043640326,-1812.8866685324012,-868.2453957044438,-6783.346532413169,-10402.069774504142,-9291.215367301611,-5443.673671110688,-12054.078515669193,0.0
1380.508631007318,-1811.1479626773687,-868.6264819192454,-6783.406077134232,-10400.402522314384,-9287.452140930445,-5440.231986233261,-12043.9320952001,0.0
1381.0921692737331,-1812.9700311418892,-871.1630870365187,-6787.157394561185,-10402.105501336779,-9285.427620414313,-5440.160532567985,-12047.838228901815,0.0
1379.2462829207877,-1809.3258942128487,-863.7676326805247,-6786.5976741831955,-10407.29780101345,-9289.05984839914,-5443.1377686211235,-12053.36397901644,0.0
1377.9482080016196,-1808.8971722211966,-856.4793588224436,-6780.964743570658,-10403.868025080237,-9289.440934613942,-5446.1507315068975,-12063.272220601282,0.0
1379.0081040365367,-1813.7202946272798,-865.029980767055,-6788.622194699329,-10407.786067726165,-9292.680167439756,-5447.293990151303,-12074.299902942104,0.0
1382.2235189739254,-1815.4828183707373,-862.2790146539559,-6784.28733900596,-10402.546132272642,-9289.29802728339,-5437.14756968221,-12079.944742498852,0.0
1380.1870895135792,-1819.5318594030045,-864.8632555480793,-6782.250909545614,-10398.223185523488,-9286.785240054543,-5439.958080516371,-12077.860677261657,0.0
1378.805651984923,-1816.8880737878183,-860.5164909104983,-6778.975949887163,-10397.21092526542,-9287.452140930445,-5446.186458339536,-12076.038608797136,0.0
1378.3173852722086,-1821.294383146462,-867.9000363222798,-6787.216939282248,-10407.964701889354,-9293.930606582073,-5448.103798357757,-12067.380806354613,0.0
1382.9976003477411,-1822.568640177205,-875.2597638456363,-6793.409590272774,-10413.014094235476,-9296.52675642041,-5444.173846767614,-12054.495328716632,0.0
1388.0708105822878,-1818.5791438660005,-870.5080951048285,-6790.468081052274,-10408.988871091633,-9289.309936227603,-5438.326555159252,-12039.40669639933,0.0
1385.5818412418646,-1813.6250230735793,-858.6348777249152,-6779.619032874641,-10400.878880082886,-9281.330943605195,-5435.539862213515,-12038.954156519254,0.0
1379.3772813071255,-1814.0418361210188,-861.612113778053,-6783.298896636318,-10401.474327293514,-9285.368075693248,-5443.090132844272,-12048.08831673028,0.0
1380.7349009473564,-1811.5528667805957,-862.8149171435206,-6784.763696774462,-10399.890437713244,-9287.916589754735,-5446.805723438589,-12058.27046403201,0.0
1386.6774641094194,-1811.0646000678807,-863.9939026205631,-6782.917810421517,-10396.04384873259,-9285.784888740689,-5446.436546168,-12064.927563846826,0.0
1387.880267474887,-1808.3017250105693,-862.219469932893,-6782.489088429865,-10399.59271410793,-9287.452140930445,-5438.838639760392,-12068.881333325393,0.0
1384.8673045891117,-1810.933601681543,-859.9091347556582,-6783.775254404821,-10401.140876855561,-9290.596102202559,-5441.86351159038,-12072.727922306047,0.0
1380.4371773420428,-1818.7458690849762,-863.8629042342251,-6786.097498526267,-10408.143336052543,-9301.349878826493,-5451.331122239358,-12071.703753103768,0.0
1380.1037269040912,-1818.781595917614,-868.8646608034965,-6784.656516276549,-10403.617937251773,-9295.288226222303,-5447.555986923979,-12061.747875742076,0.0
1386.975187714733,-1816.5903501825046,-870.4723682721908,-6783.108353528917,-10398.020733471874,-9284.141454439357,-5441.577696929278,-12049.183939597835,0.0
1385.200755027063,-1820.3893033863083,-872.6397961188751,-6782.09609327085,-10396.055757676802,-9282.986286850739,-5440.255804121685,-12037.58462793481,0.0
1381.4494376001094,-1818.8173227502516,-871.0559065386058,-6784.573153667061,-10399.330717335253,-9288.190495471625,-5444.221482544465,-12035.286201701789,0.0
1382.1877921412877,-1820.3297586652454,-874.176049922294,-6794.136035869739,-10408.965053203208,-9292.977891045068,-5442.256506749393,-12045.432622170882,0.0
1382.6760588540021,-1822.0327376876403,-876.6292924300795,-6799.304517657987,-10413.847720330354,-9297.205566240524,-5448.877879731572,-12052.220720372035,0.0
1381.651889651723,-1822.5448222887799,-870.3175519974276,-6796.744094652288,-10414.383622819918,-9297.300837794224,-5453.522367974468,-12060.676070762947,0.0
1381.2946213253463,-1815.5542720360127,-863.1721854698972,-6789.789271232158,-10408.524422267343,-9291.286820966887,-5444.80502081088,-12066.880630697686,0.0
1382.0210669223118,-1817.340613667895,-867.709493214879,-6790.73007782495,-10409.512864636985,-9293.454248813572,-5445.078926527768,-12065.070471177378,0.0
1383.9503158847451,-1817.3287047236827,-871.3774480323447,-6793.183320332735,-10409.453319915923,-9291.679816125901,-5444.85265658773,-12060.175895106018,0.0
1385.2602997481258,-1815.4828183707373,-868.2453957044438,-6787.050214063272,-10405.011283724642,-9285.999249736515,-5438.064558386576,-12056.960480168631,0.0
1384.0932232152957,-1815.173185821211,-870.5795487701038,-6786.561947350558,-10404.594470677202,-9287.499776707295,-5443.542672724349,-12048.98148754622,0.0
1389.2259781709051,-1813.553569408304,-869.1862022972352,-6785.168600877689,-10404.403927569801,-9282.950560018102,-5435.146867054501,-12033.440315348842,0.0
1384.7124883143485,-1827.4513073043508,-877.5939169112962,-6793.754949654938,-10410.108311847613,-9285.117987864785,-5434.515693011236,-12031.534884274834,0.0
1381.9496132570366,-1823.5094467699964,-871.7228074145087,-6788.646012587754,-10402.045956615715,-9285.868251350175,-5436.206763089418,-12041.038221756451,0.0
1381.8543417033363,-1816.5784412382918,-866.2804199093729,-6783.656164962696,-10400.092889764857,-9290.119744434058,-5440.732161890187,-12054.29287666502,0.0
1382.4021531371136,-1813.6964767388547,-865.2324328186685,-6784.096795898559,-10402.034047671503,-9289.89347449402,-5440.374893563811,-12063.748578369783,0.0
1384.5219452069475,-1813.6369320177919,-859.623320094557,-6778.273322178622,-10398.806723789901,-9285.570527744863,-5440.327257786961,-12073.728273619901,0.0
1386.0462900661541,-1814.1847434515694,-858.6110598364902,-6777.7255107448445,-10397.96118875081,-9279.199242591147,-5440.434438284874,-12072.656468640773,0.0
1384.5338541511603,-1812.922395365039,-861.2429365074639,-6782.751085202542,-10400.80742641761,-9281.676302987358,-5437.409566454886,-12067.380806354613,0.0
1377.0193103530405,-1812.0292245490975,-863.1126407488343,-6785.347235040877,-10404.749286951965,-9287.047236827219,-5440.374893563811,-12057.770288375083,0.0
1379.6630959682268,-1809.0996242728102,-860.6713071852614,-6781.822187553962,-10402.415133886305,-9284.141454439357,-5435.349319106114,-12042.538748727231,0.0
1379.3653723629131,-1809.2663494917856,-861.3262991169518,-6782.227091657189,-10402.153137113628,-9279.282605200637,-5432.002905782388,-12033.690403177305,0.0
1386.6655551652068,-1810.6358780762291,-864.0296294532009,-6783.263169803681,-10402.129319225203,-9284.879808980535,-5436.790301355833,-12031.18952489267,0.0
1386.5702836115065,-1811.4933220595328,-863.362728577298,-6783.465621855295,-10403.999023466575,-9288.523945909574,-5439.958080516371,-12038.644523969726,0.0
1380.3895415651925,-1812.6842164807879,-861.743112164391,-6780.92901673802,-10400.247706039621,-9284.724992705771,-5435.885221595679,-12053.614066844904,0.0
1384.1051321595085,-1810.0880666424518,-858.7420582228283,-6778.999767775588,-10399.49744255423,-9284.320088602544,-5435.444590659815,-12061.104792754597,0.0
1382.5093336350267,-1810.5644244109537,-863.1126407488343,-6784.346883727023,-10403.617937251773,-9284.891717924747,-5435.635133767216,-12069.965047248736,0.0
1378.1506600532327,-1812.6127628155125,-869.2100201856605,-6784.8589683281625,-10397.472922038096,-9282.4742022496,-5437.659654283349,-12079.1349342924,0.0
1381.1755318832209,-1806.5511102113242,-864.7798929385915,-6779.321309269327,-10392.22107764036,-9278.09171077938,-5437.75492583705,-12074.014088281003,0.0
1384.8196688122614,-1809.05198849596,-867.9238542107049,-6784.275430061748,-10402.843855877958,-9287.868953977884,-5440.017625237434,-12059.66381050488,0.0
1384.6410346490732,-1810.4453349688283,-870.2580072763649,-6789.813089120584,-10409.334230473798,-9290.667555867834,-5442.7566824063215,-12047.278508523827,0.0
1375.8760517086357,-1811.3980505058325,-865.8636068619337,-6787.062123007484,-10407.131075794476,-9289.262300450753,-5443.364038561162,-12037.834715763274,0.0
1375.6735996570224,-1810.2547918614275,-863.2436391351725,-6787.502753943349,-10404.415836514012,-9285.832524517538,-5439.576994301569,-12033.916673117345,0.0
1379.5440065261014,-1804.1216855919638,-853.3473064945427,-6777.665966023782,-10395.841396680977,-9279.294514144849,-5434.277514126985,-12042.90792599782,0.0
1379.7702764661399,-1804.3122286993646,-851.4895111973848,-6776.58225210044,-10396.710749608494,-9280.533044342954,-5440.124805735348,-12055.257501146236,0.0
1379.7821854103524,-1814.3395597263325,-865.8874247503587,-6784.23970322911,-10401.51005412615,-9284.200999160419,-5442.9472255137225,-12063.665215760297,0.0
1380.9016261663323,-1820.7227538242596,-875.3907622319743,-6791.206435593452,-10405.23755366468,-9293.049344710345,-5449.723414770663,-12071.560845773218,0.0
1380.853990389482,-1814.458649168458,-864.7203482175287,-6782.786812035179,-10397.699191978134,-9286.618514835567,-5446.924812880714,-12071.453665275305,0.0
1379.4010991955508,-1807.849185130492,-851.882506356399,-6772.819025729274,-10391.697084095009,-9282.20029653271,-5434.503784067023,-12070.084136690863,0.0
1380.7587188357816,-1805.2887621247937,-850.1676183897916,-6766.554921073472,-10386.2785144783,-9281.854937150547,-5434.039335242734,-12060.22353088287,0.0
1383.0928719014414,-1802.073347187405,-851.2751502015589,-6763.077509363407,-10382.527197051344,-9277.520081457178,-5429.061396561888,-12045.706527887769,0.0
1380.9730798316075,-1811.48141311532,-863.3508196330854,-6774.129009592654,-10388.303034994433,-9280.032868686027,-5434.658600341787,-12037.334540106347,0.0
1378.0792063879576,-1809.3139852686359,-860.0520420862088,-6777.33251558583,-10392.506892301462,-9285.713435075413,-5443.911849994938,-12036.143645685092,0.0
1377.781482782644,-1810.0880666424518,-859.837681090383,-6785.382961873515,-10401.51005412615,-9286.201701788128,-5447.091538099689,-12045.14680750978,0.0
1378.3531121048463,-1817.340613667895,-866.8163223989377,-6788.657921531966,-10405.773456154244,-9289.226573618116,-5446.400819335361,-12062.903043330693,0.0
1382.473606802389,-1814.9230979927474,-864.3392620027271,-6784.454064224936,-10403.760844582324,-9288.78594268225,-5444.447752484503,-12070.26277085405,0.0
1381.8186148706986,-1811.219416342644,-857.2058044194092,-6777.999416461733,-10398.961540064665,-9285.570527744863,-5442.030236809355,-12075.02634853907,0.0
1381.3422571021965,-1812.2078587122858,-856.6341750972067,-6776.868066761541,-10397.175198432782,-9283.629369838218,-5442.149326251481,-12073.513912624076,0.0
1384.855395644899,-1815.1255500443608,-863.7438147920996,-6786.359495298944,-10403.582210419136,-9289.833929772956,-5446.722360829101,-12066.570998148158,0.0
1382.4616978581764,-1819.9010366735938,-869.8411942289256,-6792.349694237857,-10409.02459792427,-9289.976837103506,-5443.12585967691,-12056.376941902216,0.0
1386.1891973967047,-1814.9230979927474,-865.1728880976057,-6788.264926372952,-10403.070125817996,-9281.557213545233,-5439.910444739521,-12042.967470718884,0.0
1385.8319290703282,-1809.3497121012736,-860.0520420862088,-6780.964743570658,-10396.758385385345,-9279.854234522838,-5435.230229663989,-12035.5839253071,0.0
1384.7363062027734,-1808.385087620057,-858.5396061712148,-6776.570343156227,-10396.31775444948,-9282.90292424125,-5434.063153131159,-12035.548198474464,0.0
1384.4981273185226,-1812.124496102798,-867.0187744505511,-6781.5006460602235,-10398.79481484569,-9285.14180575321,-5438.5647340435025,-12041.728940520778,0.0
1383.1166897898668,-1813.9584735115309,-874.0807783685937,-6787.740932827601,-10399.283081558404,-9283.808004001405,-5439.76753740897,-12053.959426227068,0.0
1380.270452123067,-1818.8768674713142,-878.7133576672759,-6798.208894790432,-10411.72792826052,-9294.28787490845,-5449.580507440112,-12065.261014284779,0.0
1383.188143455142,-1822.699638563543,-874.9620402403224,-6793.588224435963,-10409.6200451349,-9293.204160985108,-5452.224293055299,-12071.882387266956,0.0
1390.9527750817251,-1815.8281777529012,-864.9585271017797,-6783.441803966869,-10405.142282110979,-9285.677708242776,-5442.589957187345,-12069.786413085547,0.0
1390.476417313223,-1818.1504218743487,-864.9942539344174,-6781.774551777112,-10400.200070262772,-9281.235672051494,-5437.647745339137,-12070.441405017238,0.0
1382.1639742528625,-1824.5097980838507,-870.7224561006544,-6790.396627386999,-10402.951036375869,-9284.43917804467,-5435.885221595679,-12058.365735585712,0.0
1378.6984714870102,-1817.745517771122,-865.3515222607939,-6788.90800936043,-10404.796922728814,-9288.369129634813,-5440.6487992807,-12045.206352230844,0.0
1381.6042538748727,-1817.5549746637212,-865.8636068619337,-6789.241459798382,-10407.893248224078,-9287.70222875891,-5438.92200236988,-12032.999684412978,0.0
1376.8406761898525,-1816.947618508881,-866.8639581757878,-6788.693648364604,-10410.036858182337,-9287.33305148832,-5438.243192549764,-12034.750299212223,0.0
1380.9492619431824,-1813.6726588504296,-865.4348848702817,-6784.501700001786,-10405.57100410263,-9282.152660755859,-5433.265253868918,-12038.025258870673,0.0
1383.8550443310446,-1810.4453349688283,-861.743112164391,-6779.702395484129,-10397.330014707546,-9278.818156376345,-5433.562977474232,-12049.39830059366,0.0
1379.1152845344495,-1814.4467402242453,-865.1371612649681,-6781.453010283373,-10398.604271738288,-9284.66544798471,-5447.413079593428,-12065.22528745214,0.0
1379.758367521927,-1818.2337844838364,-867.6737663822413,-6781.560190781286,-10401.1766036882,-9283.986638164593,-5438.231283605553,-12072.59692391971,0.0
1384.855395644899,-1816.10208346979,-865.2919775397312,-6779.9524833125915,-10399.59271410793,-9280.580680119805,-5429.918840545191,-12068.035798286302,0.0
1387.8564495864618,-1816.1854460792779,-868.8170250266462,-6784.787514662888,-10398.4256375751,-9280.306774402916,-5435.742314265129,-12066.963993307172,0.0
1380.9135351105447,-1819.5914041240674,-873.3900596042658,-6790.968256709201,-10407.90515716829,-9286.154066011277,-5444.304845153953,-12061.271517973573,0.0
1375.5902370475344,-1814.851644327472,-865.4229759260693,-6786.859670955871,-10410.1916744571,-9286.642332723992,-5441.113248104989,-12048.052589897643,0.0
1379.6750049124396,-1812.6842164807879,-860.0163152535712,-6783.12026247313,-10408.857872705295,-9288.523945909574,-5442.077872586206,-12037.34644905056,0.0
1385.0221208638748,-1812.386492875474,-862.1241983791926,-6781.000470403296,-10406.440357030147,-9288.107132862136,-5443.280675951673,-12037.453629548472,0.0
1385.462751799739,-1810.8621480162676,-865.3277043723689,-6780.92901673802,-10404.463472290863,-9286.368427007103,-5446.460364056424,-12042.931743886245,0.0
1381.0326245526703,-1805.5269410090448,-855.7410042812654,-6772.092580132308,-10395.638944629363,-9277.424809903478,-5441.387153821878,-12051.041734894992,0.0
1377.6028486194557,-1818.6386885870634,-869.1385665203851,-6784.513608945998,-10399.056811618366,-9276.305369147498,-5439.291179640469,-12066.20182087757,0.0
1378.2102047742958,-1819.2817715745412,-873.5329669348164,-6796.196283218511,-10410.394126508714,-9284.379633323608,-5432.336356220339,-12075.657522582334,0.0
1381.5923449306601,-1817.2691600026199,-871.1511780923062,-6796.089102720598,-10416.920227937191,-9288.750215849614,-5434.134606796434,-12073.704455731477,0.0
1382.1163384760123,-1817.4477941658083,-867.1021370600389,-6790.253720056448,-10409.893950851787,-9287.05914577143,-5441.30379121239,-12073.740182564114,0.0
1382.75942146349,-1814.2919239494822,-862.5052845939942,-6784.418337392299,-10403.903751912872,-9283.17682995814,-5431.859998451838,-12059.044545405826,0.0
1378.4483836585468,-1811.6005025574457,-860.0520420862088,-6778.964040942949,-10401.831595619891,-9281.045128944093,-5433.83688319112,-12043.443828487385,0.0
1379.1510113670872,-1816.3283534098284,-861.4334796148647,-6776.927611482603,-10399.854710880607,-9283.069649460227,-5441.637241650341,-12033.035411245615,0.0
1382.7713304077026,-1817.87651615746,-864.7322571617414,-6780.166844308417,-10400.307250760685,-9286.332700174467,-5438.386099880315,-12032.487599811839,0.0
1386.236833173555,-1808.8138096117088,-858.5515151154275,-6776.129712220363,-10397.11565371172,-9280.592589064017,-5436.02812892623,-12037.882351540124,0.0
1390.131057931059,-1806.2533866060103,-857.2058044194092,-6772.033035411246,-10390.244192901078,-9273.101863154321,-5430.430925146331,-12042.610202392507,0.0
1392.2032142240428,-1803.3118773855103,-853.9427537051703,-6766.614465794534,-10383.860998803151,-9269.398181504217,-5423.70237166624,-12051.077461727631,0.0
1389.4641570551562,-1806.694017541875,-860.5283998547108,-6768.341262705355,-10382.467652330282,-9269.969810826422,-5424.440726207418,-12064.403570301474,0.0
1384.2837663226965,-1814.6253743874336,-872.401617234624,-6785.168600877689,-10402.53422332843,-9286.72569533348,-5442.578048243133,-12073.228097962974,0.0
1380.7349009473564,-1816.7570754014803,-872.0086220756099,-6791.635157585104,-10415.41970096641,-9297.122203631037,-5451.462120625696,-12075.145437981195,0.0
1381.9019774801864,-1817.2334331699822,-870.3651877742778,-6788.264926372952,-10409.060324756909,-9290.012563936145,-5444.578750870842,-12062.236142454789,0.0
1380.079909015666,-1817.6264283289966,-872.7588855610006,-6789.658272845821,-10411.084845273042,-9292.632531662905,-5446.638998219613,-12050.79164706653,0.0
1379.6630959682268,-1814.196652395782,-867.1021370600389,-6786.788217290597,-10409.381866250646,-9291.417819353226,-5451.39066696042,-12039.430514287755,0.0
1378.4126568259092,-1820.0439440041444,-869.6387421773122,-6788.324471094014,-10411.287297324656,-9291.572635627987,-5446.448455112212,-12042.991288607307,0.0
1382.0210669223118,-1827.1059479221867,-873.1399717758022,-6790.479989996487,-10412.656825909098,-9293.335159371447,-5444.90029236458,-12045.84943521832,0.0
1382.866601961403,-1822.4733686235045,-869.1385665203851,-6786.990669342209,-10408.59587593262,-9290.334105429883,-5444.638295591904,-12056.03158252005,0.0
1378.6746535985853,-1824.4145265301504,-873.7354189864297,-6792.123424297819,-10411.739837204732,-9292.584895886053,-5448.842152898935,-12067.32126163355,0.0
1374.6851572873807,-1824.4621623070004,-872.8303392262759,-6789.896451730072,-10410.894302165641,-9293.894879749436,-5449.080331783185,-12078.396579751223,0.0
1375.2925134422208,-1816.8285290667557,-867.4117696095652,-6788.562649978267,-10413.180819454452,-9292.501533276567,-5447.79416580823,-12078.682394412323,0.0
1376.0189590391863,-1813.6369320177919,-863.7557237363121,-6785.656867590404,-10408.250516550454,-9285.84443346175,-5444.7216582013925,-12074.478537105291,0.0
1377.2574892372916,-1811.671956222721,-863.8629042342251,-6784.823241495525,-10407.42879939979,-9286.344609118678,-5447.293990151303,-12065.856461495407,0.0
1378.6865625427977,-1807.1346484777391,-867.5189501074782,-6785.859319642017,-10409.10796053376,-9291.096277859486,-5449.6281432169635,-12051.446638998219,0.0
1378.3888389374838,-1810.3381544709152,-867.3045891116523,-6781.512555004436,-10404.2133844624,-9289.047939454927,-5446.126913618474,-12044.610905020216,0.0
1381.2946213253463,-1812.5294002060245,-864.8037108270166,-6777.916053852246,-10401.914958229378,-9289.178937841265,-5449.306601723224,-12043.65818948321,0.0
1386.3559226156804,-1804.8481311889295,-858.5872419480651,-6774.069464871592,-10400.521611756509,-9288.226222304262,-5447.424988537641,-12045.373077449818,0.0
1386.30828683883,-1802.3234350158687,-852.5851340649394,-6769.579792903461,-10394.650502259721,-9282.879106352826,-5443.375947505374,-12056.924753335992,0.0
1381.354166046409,-1806.9560143145509,-854.9907407958748,-6769.663155512948,-10392.721253297288,-9279.473148308036,-5440.5654366712115,-12066.428090817608,0.0
1374.4707962915547,-1801.5136268094152,-849.071995522237,-6764.804306274227,-10387.648043062742,-9277.984530281468,-5436.814119244258,-12072.858920692386,0.0
1378.889014594411,-1808.2421802895065,-858.6348777249152,-6781.0481061801465,-10402.927218487444,-9289.345663060241,-5438.660005597204,-12074.407083440017,0.0
1381.223167660071,-1807.8849119631298,-858.0513394585003,-6782.2151827129765,-10405.678184600545,-9288.6430353517,-5438.112194163426,-12069.798322029761,0.0
1377.3051250141418,-1811.4575952268951,-856.5150856550812,-6774.283825867417,-10398.65190751514,-9283.010104739165,-5449.485235886413,-12065.344376894267,0.0
1376.7096778035143,-1812.1602229354357,-855.9196384444537,-6774.39100636533,-10398.687634347776,-9283.474553563454,-5445.448103798358,-12051.744362603533,0.0
1378.7103804312228,-1810.4691528572534,-856.0625457750043,-6775.117451962296,-10398.98535795309,-9278.949154762684,-5424.726540868519,-12040.835769704836,0.0
1382.1639742528625,-1808.3731786758444,-855.7410042812654,-6775.558082898161,-10399.104447395215,-9276.674546418086,-5427.048784989966,-12041.216855919638,0.0
1381.568527042235,-1811.0050553468182,-860.445037245223,-6779.833393870466,-10401.700597233552,-9278.937245818472,-5434.360876736472,-12045.706527887769,0.0
1376.900220910915,-1819.9010366735938,-871.4489016976199,-6790.253720056448,-10409.358048362223,-9280.068595518665,-5432.919894486754,-12058.365735585712,0.0
1378.0077527226822,-1817.507338886871,-871.6037179723832,-6791.492250254554,-10413.180819454452,-9281.974026592672,-5434.20606046171,-12067.41653318725,0.0
1377.459941288905,-1814.9469158811726,-870.7700918775046,-6787.109758784334,-10413.228455231301,-9282.89101529704,-5432.753169267778,-12072.656468640773,0.0
1374.0539832441154,-1821.6754693612636,-878.7848113325513,-6790.622897327037,-10407.512162009276,-9282.664745357,-5433.6582490279325,-12077.717769931107,0.0
1375.971323262336,-1823.1640873878325,-876.403022490041,-6791.206435593452,-10402.355589165243,-9283.40309989818,-5432.407809885614,-12077.062777999416,0.0
1376.1975932023745,-1827.1893105316747,-874.9501312961099,-6790.265629000661,-10409.131778422183,-9291.405910409014,-5439.100636533068,-12066.85681280926,0.0
1380.532448895743,-1818.2218755396239,-863.9939026205631,-6777.570694470081,-10399.449806777378,-9283.87945766668,-5437.314294901185,-12048.08831673028,0.0
1380.4729041746805,-1817.030981118369,-863.8271774015874,-6776.105894331938,-10393.93596560697,-9278.806247432134,-5438.326555159252,-12038.0490767591,0.0
1380.877808277907,-1810.6358780762291,-860.6117624641987,-6772.926206227186,-10396.341572337904,-9281.330943605195,-5439.791355297396,-12038.334891420202,0.0
1381.8186148706986,-1811.5528667805957,-867.6499484938162,-6783.12026247313,-10408.643511709468,-9288.345311746387,-5440.124805735348,-12044.217909861201,0.0
1377.6623933405183,-1817.078616895219,-873.7354189864297,-6789.932178562709,-10411.82319981422,-9290.036381824568,-5436.575940360008,-12057.925104649847,0.0
1374.4946141799799,-1816.5665322940795,-873.9974157591058,-6792.802234117934,-10411.275388380443,-9288.535854853788,-5438.707641374054,-12069.452962647596,0.0
1373.93489380199,-1820.3297586652454,-874.366593029695,-6793.7311317665135,-10410.930028998278,-9291.036733138424,-5448.556338237833,-12074.811987543244,0.0
1371.3387439636538,-1824.2358923669622,-876.033845219452,-6793.826403320213,-10412.633008020674,-9291.882268177515,-5442.804318183172,-12073.490094735651,0.0
1373.4109002566377,-1819.6033130682797,-871.4608106418325,-6787.288392947523,-10408.798327984232,-9289.702931386617,-5440.529709838574,-12068.547882887442,0.0
1373.3870823682125,-1815.887722473964,-867.9714899875552,-6785.716412311466,-10408.75069220738,-9292.537260109206,-5445.674373738397,-12057.579745267683,0.0
1375.0900613906074,-1814.696828052709,-863.6128164057615,-6781.7626428328995,-10404.796922728814,-9286.63042377978,-5443.7808516086,-12049.67220631055,0.0
1379.2224650323624,-1813.0295758629518,-860.9571218463627,-6775.450902400247,-10397.603920424435,-9278.865792153196,-5442.9829523463595,-12036.477096123042,0.0
1379.579733358739,-1812.6603985923628,-865.6492458661078,-6775.808170726624,-10397.580102536009,-9277.543899345603,-5444.709749257179,-12037.763262097998,0.0
1377.4956681215428,-1814.3752865589702,-867.3879517211401,-6781.226740343335,-10398.37800179825,-9281.092764720945,-5443.185404397973,-12043.146104882071,0.0
1376.614406249814,-1816.8166201225429,-864.8751644922919,-6783.346532413169,-10403.296395758034,-9288.6430353517,-5443.149677565335,-12054.781143377733,0.0
1376.1856842581622,-1818.9245032481645,-867.94767209913,-6786.62149207162,-10408.083791331479,-9289.691022442405,-5444.138119934977,-12064.022484086672,0.0
1378.8532877617733,-1813.4940246872413,-863.2674570235976,-6780.547930523219,-10403.475029921223,-9286.225519676553,-5440.803615555463,-12069.202874819133,0.0
1378.3173852722086,-1812.0292245490975,-860.3974014683728,-6777.65405707957,-10399.81898404797,-9282.700472189637,-5439.160181254131,-12071.560845773218,0.0
1377.650484396306,-1810.0642487540267,-860.8142145158121,-6777.368242418468,-10396.008121899951,-9281.974026592672,-5438.457553545591,-12064.594113408875,0.0
1376.9478566877654,-1811.910135106972,-867.3284070000774,-6778.535318951298,-10397.651556201285,-9283.450735675027,-5437.790652669687,-12051.601455272983,0.0
1372.3271863332957,-1815.4470915380996,-874.735770300284,-6786.752490457958,-10409.762952465448,-9289.607659832918,-5444.876474476155,-12045.09917173293,0.0
1376.3166826445001,-1814.5301028337333,-874.1641409780816,-6787.931475935001,-10409.155596310608,-9287.857045033674,-5444.912201308793,-12034.893206542774,0.0
1378.4960194353969,-1813.005757974527,-870.174644666877,-6783.560893408994,-10403.617937251773,-9282.450384361175,-5433.574886418445,-12033.702312121519,0.0
1377.4242144562672,-1811.8267724974842,-861.4572975032899,-6773.938466485253,-10398.98535795309,-9282.236023365349,-5436.77839241162,-12042.514930838806,0.0
1375.2925134422208,-1813.20821002614,-857.2653491404719,-6769.38924979606,-10393.126157400515,-9280.711678506143,-5438.076467330789,-12055.436135309425,0.0
1377.4361234004798,-1810.6239691320166,-861.3262991169518,-6771.0803198742415,-10390.696732781154,-9273.756855086012,-5436.599758248432,-12060.795160205073,0.0
1377.0193103530405,-1813.5416604640916,-869.4839259025491,-6787.467027110712,-10405.60673093527,-9282.545655914873,-5441.160883881839,-12069.488689480233,0.0
1378.2459316069333,-1810.5644244109537,-863.8867221226502,-6785.430597650366,-10407.071531073412,-9285.927796071239,-5441.089430216564,-12070.893944897314,0.0
1380.2823610672797,-1814.7563727737718,-871.4846285302576,-6793.9574017065515,-10413.442816227127,-9287.595048260997,-5438.96963814673,-12069.012331711732,0.0
1377.8410275037068,-1819.388952072454,-875.8075752794135,-6797.208543476578,-10417.849125585772,-9288.78594268225,-5434.884870281825,-12061.962236737902,0.0
1377.0193103530405,-1822.068464520278,-872.7231587283628,-6789.205732965744,-10410.965755830917,-9286.737604277692,-5438.124103107639,-12044.670449741277,0.0
1379.1867381997247,-1820.663209103197,-870.7343650448669,-6788.1815637634645,-10409.500955692774,-9285.892069238602,-5439.029182867793,-12031.249069613732,0.0
1386.3321047272555,-1813.875110902043,-866.3161467420106,-6785.251963487177,-10406.333176532233,-9285.129896808998,-5439.791355297396,-12027.271482246742,0.0
1382.3783352486885,-1811.5528667805957,-862.8744618645834,-6781.488737116011,-10401.379055739813,-9280.509226454527,-5434.360876736472,-12034.905115486987,0.0
1373.0417229860486,-1805.2053995153058,-853.8117553188322,-6775.188905627571,-10400.688336975485,-9280.354410179765,-5434.682418230212,-12044.896719681316,0.0
1376.6024973056014,-1806.610654932387,-858.5157882827898,-6781.893641219237,-10407.988519777778,-9284.462995933094,-5432.52689932774,-12055.257501146236,0.0
1377.8410275037068,-1808.0040014052554,-867.9357631549174,-6785.978409084142,-10409.631954079112,-9280.509226454527,-5431.514639069673,-12066.34472820812,0.0
1375.10197033482,-1809.5878909855246,-870.6629113795916,-6786.871579900084,-10405.785365098458,-9278.306071775207,-5430.550014588456,-12067.54753157359,0.0
1374.065892188328,-1815.6852704223506,-869.3052917393609,-6782.727267314116,-10405.344734162592,-9281.49766882417,-5429.156668115588,-12066.011277770169,0.0
1372.4939115522711,-1816.1973550234902,-868.2334867602312,-6780.559839467432,-10404.2133844624,-9278.282253886782,-5426.215158895088,-12054.042788836556,0.0
1372.577274161759,-1817.5668836079337,-866.7805955663001,-6776.737068375202,-10398.437546519312,-9276.603092752812,-5430.764375584283,-12038.251528810713,0.0
1376.3881363097755,-1816.9118916762434,-865.7445174198082,-6780.452658969519,-10403.165397371695,-9284.43917804467,-5443.983303660214,-12029.224549097598,0.0
1379.901274852478,-1816.4117160193164,-862.6720098129699,-6780.202571141055,-10405.904454540583,-9288.30958491375,-5441.946874199867,-12031.237160669521,0.0
1379.5440065261014,-1815.7209972549883,-861.6597495549031,-6779.130766161926,-10403.546483586497,-9286.880511608242,-5436.599758248432,-12032.797232361365,0.0
1372.8511798786478,-1817.5668836079337,-866.3995093514984,-6785.013784602926,-10405.582913046843,-9292.787347937669,-5448.663518735746,-12046.73069709005,0.0
1373.1489034839615,-1817.1738884489196,-864.6727124406785,-6780.547930523219,-10398.580453849863,-9285.18944153006,-5443.709397943326,-12060.97379436826,0.0
1377.7338470057937,-1812.4341286523243,-859.5399574850692,-6776.0225317224495,-10396.46066178003,-9280.902221613542,-5437.719199004412,-12066.963993307172,0.0
1375.1257882232449,-1814.2561971168445,-860.7308519063242,-6775.962987001387,-10395.698489350427,-9283.819912945617,-5441.339518045028,-12070.000774081373,0.0
1374.673248343168,-1818.4005097028123,-866.328055686223,-6781.988912772938,-10401.426691516663,-9285.308530972186,-5446.960539713352,-12067.214081135637,0.0
1377.2336713488664,-1819.019774801865,-871.3893569765572,-6787.9910206560635,-10407.76224983774,-9287.404505153596,-5443.12585967691,-12055.543315807337,0.0
1379.9965464061784,-1815.7924509202637,-869.6982868983749,-6786.1451343031185,-10406.440357030147,-9285.177532585849,-5434.337058848048,-12040.609499764798,0.0
1380.8182635568444,-1811.7791367206341,-864.3749888353648,-6781.464919227586,-10405.106555278342,-9281.402397270469,-5435.1706849429265,-12029.3198206513,0.0
1380.5205399515307,-1808.516086006395,-860.5998535199861,-6776.510798435164,-10397.711100922348,-9279.080153149021,-5435.254047552414,-12023.603527429275,0.0
1377.5790307310303,-1813.7560214599173,-868.0667615412556,-6784.370701615448,-10400.462067035445,-9285.74916190805,-5439.672265855271,-12035.4886537534,0.0
1378.0315706111076,-1816.1854460792779,-869.5791974562495,-6784.430246336511,-10399.175901060493,-9283.12919418129,-5439.100636533068,-12048.46940294508,0.0
1373.8753490809272,-1820.7822985453224,-876.2720241037031,-6786.168952191543,-10398.485182296163,-9278.306071775207,-5433.598704306869,-12056.103036185326,0.0
1374.5184320684048,-1820.4726659957962,-874.7714971329216,-6791.063528262901,-10407.809885614592,-9281.116582609367,-5429.954567377828,-12062.355231896916,0.0
1376.9240387993402,-1818.4481454796623,-862.9816423624962,-6785.192418766114,-10408.441059657856,-9284.986989478448,-5436.992753407447,-12063.474672652896,0.0
1378.257840551146,-1817.423976277383,-863.4580001309984,-6782.620086816203,-10404.249111295037,-9284.379633323608,-5433.265253868918,-12064.463115022538,0.0
1380.7229920031439,-1817.4120673331706,-871.8657147450592,-6793.397681328562,-10410.560851727689,-9285.701526131199,-5429.775933214641,-12053.352070072227,0.0
1378.4722015469717,-1817.6026104405714,-873.7830547632799,-6794.100309037102,-10411.513567264694,-9289.143211008626,-5436.123400479931,-12041.157311198576,0.0
1379.841730131415,-1812.2197676564983,-867.5784948285409,-6784.930421993438,-10401.581507791427,-9280.33059229134,-5433.979790521671,-12027.712113182604,0.0
1380.9730798316075,-1811.5766846690206,-866.6019614031118,-6780.583657355857,-10395.960486123104,-9277.531990401392,-5437.326203845399,-12021.960093127942,0.0
1378.7103804312228,-1808.3017250105693,-862.3861951518687,-6780.262115862118,-10401.462418349302,-9287.38068726517,-5445.317105412019,-12033.237863297229,0.0
1378.3292942164212,-1809.7784340929254,-858.00370368165,-6775.438993456035,-10398.187458690849,-9286.940056329306,-5446.638998219613,-12050.196199855902,0.0
1379.8655480198404,-1816.0306298045148,-856.9318987025205,-6768.650895254881,-10389.613018857814,-9276.531639087536,-5436.718847690558,-12058.3538266415,0.0
1377.2813071257167,-1813.7441125157047,-859.7543184808951,-6775.998713834025,-10393.80496722063,-9276.067190263248,-5433.6582490279325,-12064.975199623677,0.0
1370.2431210960992,-1817.31679577947,-873.1876075526524,-6796.648823098588,-10414.002536605116,-9288.988394733866,-5437.862106334963,-12068.011980397878,0.0
1375.0543345579697,-1811.671956222721,-868.4002119792069,-6792.6355088989585,-10414.15735287988,-9288.13095075056,-5437.671563227562,-12067.03544697245,0.0
1380.591993616806,-1814.1013808420814,-870.8534544869924,-6792.016243799906,-10414.097808158816,-9287.309233599895,-5434.861052393399,-12053.244889574315,0.0
1384.9387582543868,-1815.149367932786,-873.3662417158407,-6790.6824420481,-10412.490100690124,-9286.606605891353,-5434.491875122811,-12044.30127247069,0.0
1386.022472177729,-1813.505933631454,-871.7704431913588,-6783.67998285112,-10401.938776117802,-9278.841974264771,-5431.419367515972,-12036.119827796665,0.0
1380.139453736729,-1808.49226811797,-870.8058187101423,-6782.83444781203,-10399.568896219505,-9281.438124103108,-5438.92200236988,-12032.154149373886,0.0
1380.2109074020043,-1811.540957836383,-867.0902281158264,-6782.846356756241,-10398.3303660214,-9283.391190953966,-5442.256506749393,-12035.036113873324,0.0
1376.507225751901,-1829.8807319237112,-878.606177169363,-6800.340595804479,-10419.683102994504,-9299.42062986406,-5459.322023805979,-12051.12509750448,0.0
1381.485164432747,-1816.125901358215,-861.1714828421887,-6782.965446198367,-10405.940181373218,-9289.274209394966,-5453.153190703878,-12060.473618711332,0.0
1380.401450509405,-1813.505933631454,-860.9690307905752,-6780.154935364206,-10400.47397597966,-9283.665096670853,-5449.8544131570015,-12067.32126163355,0.0
1375.6974175454475,-1814.4943760010956,-866.3876004072858,-6786.06177169363,-10406.106906592195,-9287.46404987466,-5454.617990842022,-12069.357691093895,0.0
1377.8410275037068,-1812.6723075365753,-865.7445174198082,-6783.739527572183,-10405.070828445703,-9287.356869376745,-5441.6610595387665,-12064.486932910962,0.0
1376.7215867477269,-1815.8043598644763,-868.7455713613709,-6784.001524344859,-10406.40463019751,-9287.261597823044,-5438.0407404981515,-12056.472213455916,0.0
1375.923687485486,-1817.8050624921846,-867.8047647685794,-6783.787163349033,-10406.82144324495,-9283.40309989818,-5440.577345615425,-12047.57623212914,0.0
1378.3412031606338,-1813.6488409620044,-862.5529203708445,-6778.844951500824,-10401.569598847214,-9280.080504462878,-5440.315348842749,-12035.1075675386,0.0
1378.174477941658,-1811.0526911236684,-860.9452129021502,-6779.452307655665,-10402.546132272642,-9281.914481871609,-5439.672265855271,-12033.690403177305,0.0
1378.7103804312228,-1813.8632019578304,-865.7683353082333,-6784.632698388124,-10405.166099999406,-9285.320439916399,-5439.48172274787,-12043.979730976951,0.0
1380.1751805693666,-1814.7325548853466,-869.8411942289256,-6791.456523421915,-10409.882041907575,-9287.880862922097,-5440.684526113338,-12056.996207001268,0.0
1379.5201886376763,-1817.0428900625814,-870.1508267784519,-6789.670181790033,-10408.381514936793,-9287.440231986233,-5445.078926527768,-12066.66626970186,0.0
1379.1510113670872,-1818.698233308126,-872.4968887883244,-6789.00328091413,-10406.45226597436,-9288.559672742213,-5445.829190013159,-12071.584663661642,0.0
1379.8893659082653,-1819.3770431282414,-873.5329669348164,-6788.788919918305,-10409.119869477972,-9292.739712160817,-5444.638295591904,-12074.407083440017,0.0
1378.281658439571,-1818.781595917614,-872.9375197241889,-6785.525869204065,-10401.319511018752,-9281.54530460102,-5435.587497990366,-12072.847011748174,0.0
1375.2329687211582,-1819.4961325703669,-871.8418968566341,-6785.109056156626,-10400.878880082886,-9281.307125716768,-5437.8859242233875,-12060.771342316646,0.0
1374.5184320684048,-1819.174591076628,-873.8425994843427,-6793.350045551711,-10411.680292483668,-9286.225519676553,-5439.160181254131,-12046.325792986821,0.0
1376.054685871824,-1817.531156775296,-873.806872651705,-6795.481746565758,-10416.551050666603,-9287.583139316785,-5440.767888722826,-12031.106162283184,0.0
1379.9608195735407,-1814.7682817179843,-876.5459298205918,-6794.100309037102,-10412.859277960712,-9283.962820276169,-5439.279270696256,-12030.07008413669,0.0
1384.510036262735,-1809.421165766549,-870.2937341090025,-6785.013784602926,-10403.28448681382,-9276.936543190763,-5431.574183790736,-12026.926122864577,0.0
1383.7359548889194,-1808.801900667496,-859.0516907723546,-6775.069816185445,-10396.36539022633,-9273.292406261722,-5429.359120167202,-12033.642767400457,0.0
1387.749269088549,-1808.623266504308,-863.3270017446603,-6774.784001524345,-10394.388505487046,-9271.60133618354,-5429.72829743779,-12048.46940294508,0.0
1391.298134463889,-1810.2309739730024,-870.8534544869924,-6785.490142371428,-10403.04630792957,-9277.234266796077,-5432.467354606677,-12062.224233510577,0.0
1377.852936447919,-1820.0320350599318,-874.5809540255208,-6795.5055644541835,-10414.39553176413,-9291.501181962713,-5446.031642064772,-12073.359096349313,0.0
1367.2182492661113,-1825.8912356125068,-874.9977670729602,-6796.696458875438,-10417.277496263569,-9296.562483253047,-5449.0207870621225,-12074.978712762218,0.0
1368.1709648031153,-1830.3689986364259,-877.9154584050351,-6799.233063992711,-10421.707623510638,-9299.873169744136,-5453.974907854544,-12065.534920001666,0.0
1376.531043640326,-1824.0810760921988,-870.4009146069155,-6788.526923145628,-10408.41724176943,-9288.666853240125,-5449.973502599127,-12049.172030653623,0.0
1376.9121298551277,-1817.8050624921846,-866.1375125788222,-6783.822890181671,-10405.487641493142,-9286.67805955663,-5446.126913618474,-12033.773765786795,0.0
1373.6609880851013,-1822.7949101172435,-871.9967131313973,-6791.563703919829,-10415.776969292787,-9296.645845862535,-5453.832000523994,-12034.512120327972,0.0
1372.6844546596722,-1822.7949101172435,-875.1644922919359,-6796.494006823825,-10420.516729089382,-9295.026229449628,-5450.890491303493,-12046.444882428948,0.0
1370.5527536456254,-1820.6513001589844,-873.5925116558791,-6795.267385569931,-10418.766114290138,-9292.596804830268,-5452.617288214314,-12058.639641302601,0.0
1373.2203571492369,-1819.0793195229276,-870.758182933292,-6790.920620932351,-10417.28940520778,-9289.05984839914,-5447.758438975592,-12067.940526732604,0.0
1374.804246729506,-1820.5322107168588,-876.6292924300795,-6794.338487921353,-10416.169964451801,-9290.512739593072,-5446.186458339536,-12075.990973020285,0.0
1373.9229848577775,-1821.401563644375,-877.2842843617699,-6794.398032642416,-10411.858926646857,-9292.430079611293,-5444.99556391828,-12078.217945588034,0.0
1379.1629203112998,-1820.055852948357,-874.2117767549319,-6795.172114016232,-10414.538439094682,-9290.036381824568,-5444.90029236458,-12074.097450890491,0.0
1380.2585431788543,-1818.5434170333629,-873.5329669348164,-6792.695053620021,-10416.050875009676,-9287.654592982059,-5442.3041425262445,-12062.772044944355,0.0
1378.5079283796094,-1817.6026104405714,-871.2107228133689,-6786.788217290597,-10406.952441631287,-9283.748459280343,-5441.899238423018,-12047.254690635402,0.0
1380.615811505231,-1816.4117160193164,-867.8643094896421,-6784.072978010134,-10402.712857491619,-9286.499425393442,-5443.852305273876,-12032.392328258136,0.0
1379.5440065261014,-1814.2800150052697,-867.8881273780672,-6784.251612173322,-10407.452617288214,-9288.476310132726,-5442.851953960021,-12035.369564311275,0.0
1383.6168654467938,-1813.5773872967293,-867.0425923389762,-6783.394168190019,-10405.440005716293,-9282.771925854911,-5444.29293620974,-12042.419659285106,0.0
1379.3891902513383,-1827.3203089180129,-881.6429579435635,-6797.911171185118,-10415.133886305308,-9292.299081224954,-5454.022543631394,-12057.639289988745,0.0
1377.7338470057937,-1825.7245103935309,-877.4986453575958,-6795.624653896309,-10412.490100690124,-9290.024472880357,-5443.602217445412,-12071.09639694893,0.0
1377.162217683591,-1824.902793242865,-874.7595881887091,-6792.8260520063595,-10409.596227246473,-9289.953019215081,-5443.983303660214,-12077.717769931107,0.0
1376.126139537099,-1823.366539439446,-877.2961933059823,-6799.030611941098,-10419.38537938919,-9292.644440607117,-5448.675427679959,-12077.229503218392,0.0
1377.5194860099677,-1816.4593517961664,-875.2597638456363,-6794.255125311865,-10415.907967679124,-9288.083314973712,-5440.863160276525,-12071.84666043432,0.0
1380.0203642946035,-1813.2201189703526,-872.4730708998993,-6791.789973859867,-10412.609190132249,-9289.143211008626,-5446.7580876617385,-12061.688331021014,0.0
1378.5079283796094,-1821.615924640201,-875.4741248414622,-6794.88629935513,-10414.895707421058,-9291.572635627987,-5444.185755711827,-12051.63718210562,0.0
1376.4119541982006,-1831.5956198903186,-880.8807855139602,-6798.780524112634,-10416.908318992979,-9292.811165826093,-5444.209573600253,-12040.549955043734,0.0
1379.948910629328,-1830.6667222417395,-878.5585413925129,-6798.006442738819,-10417.503766203607,-9292.620622718692,-5447.591713756617,-12038.858884965553,0.0
1385.2602997481258,-1823.9858045384985,-874.5214093044581,-6793.361954495924,-10414.085899214606,-9291.679816125901,-5450.557040865542,-12041.121584365937,0.0
1377.3646697352046,-1817.82888038061,-871.5084464186828,-6791.123072983964,-10414.145443935668,-9292.739712160817,-5451.223941741445,-12048.517038721931,0.0
1375.6735996570224,-1818.1027860974987,-875.212128068786,-6796.958455648114,-10419.135291560726,-9293.525702478846,-5449.651961105388,-12056.781846005442,0.0
1376.531043640326,-1823.366539439446,-877.1651949196444,-6795.49365550997,-10415.991330288614,-9288.583490630637,-5447.4011706492165,-12063.712851537148,0.0
1376.1499574255245,-1822.0922824087029,-875.2002191245734,-6791.492250254554,-10411.501658320482,-9284.975080534236,-5440.5654366712115,-12066.523362371308,0.0
1379.639278079802,-1819.9843992830815,-871.7108984702961,-6786.097498526267,-10405.035101613066,-9284.129545495145,-5442.47086774522,-12064.260662970923,0.0
1383.104780845654,-1819.9248545620187,-874.8548597424095,-6790.07508589326,-10408.572058044194,-9286.761422166117,-5443.768942664388,-12053.947517282855,0.0
1379.8060032987776,-1817.7216998826968,-876.403022490041,-6794.755300968793,-10414.621801704168,-9285.761070852262,-5440.6487992807,-12041.83612101869,0.0
1378.8532877617733,-1818.7458690849762,-876.1052988847274,-6795.267385569931,-10419.325834668127,-9287.84513608946,-5443.44740117065,-12034.345395108996,0.0
1385.2602997481258,-1817.5430657195086,-871.0082707617556,-6787.18121244961,-10407.595524618766,-9280.735496394565,-5433.253344924706,-12030.379716686217,0.0
1379.4010991955508,-1824.2001655343245,-877.2604664733448,-6790.646715215463,-10416.884501104554,-9291.322547799524,-5440.410620396448,-12041.383581138614,0.0
1378.2102047742958,-1827.1059479221867,-882.583764536355,-6796.208192162724,-10422.27925283284,-9293.16843415247,-5443.899941050727,-12049.696024198975,0.0
1383.0214182361663,-1820.7703896011099,-875.104947570873,-6788.229199540315,-10410.251219178164,-9282.533746970661,-5439.898535795309,-12058.472916083625,0.0
1385.0578476965125,-1815.601907812863,-869.0432949666847,-6786.859670955871,-10403.320213646459,-9283.188738902352,-5439.279270696256,-12066.642451813435,0.0
1379.9370016851155,-1817.9956055995854,-871.663262693446,-6794.362305809778,-10413.800084553504,-9293.108889431407,-5445.841098957371,-12068.786061771694,0.0
1377.6385754520934,-1821.6635604170513,-874.3427751412698,-6792.754598341084,-10411.644565651033,-9287.33305148832,-5437.350021733822,-12068.273977170553,0.0
1378.8294698733484,-1819.7462203988305,-868.3049404255065,-6788.276835317165,-10412.06137869847,-9285.022716311085,-5446.936721824926,-12060.22353088287,0.0
1379.21055608815,-1819.758129343043,-867.2093175579519,-6789.253368742594,-10413.287999952365,-9285.296622027974,-5443.63794427805,-12045.19444328663,0.0
1380.079909015666,-1820.6155733263467,-871.579900083958,-6792.8260520063595,-10413.454725171341,-9287.321142544108,-5439.6603569110575,-12030.701258179955,0.0
1380.2585431788543,-1825.009973740778,-874.045051535956,-6795.112569295169,-10415.252975747435,-9288.17858652741,-5437.302385956973,-12030.43926140728,0.0
1381.9853400896743,-1824.3073460322373,-872.1991651830107,-6793.683495989662,-10413.764357720866,-9285.713435075413,-5437.278568068547,-12037.191632775795,0.0
1381.913886424399,-1821.115748983274,-868.8051160824336,-6788.800828862517,-10410.215492345525,-9284.641630096285,-5438.350373047678,-12048.46940294508,0.0
1380.1989984577917,-1822.568640177205,-870.2341893879398,-6789.039007746768,-10407.821794558804,-9280.664042729291,-5441.25615543554,-12059.068363294251,0.0
1379.0914666460244,-1819.6985846219802,-867.3879517211401,-6783.036899863642,-10398.628089626714,-9277.746351397216,-5440.0771699584975,-12068.250159282128,0.0
1375.5545102148967,-1817.662155161634,-869.8173763405005,-6789.872633841646,-10409.358048362223,-9287.202053101983,-5436.718847690558,-12069.595869978148,0.0
1375.4830565496216,-1819.8057651198933,-876.6650192627172,-6796.363008437486,-10416.62250433188,-9291.548817739564,-5446.3412746142985,-12072.120566151209,0.0
1375.0543345579697,-1819.519950458792,-873.5210579906038,-6792.706962564234,-10412.537736466973,-9287.297324655683,-5442.196962028331,-12062.402867673765,0.0
1371.9222822300687,-1817.9360608785228,-866.7448687336624,-6785.561596036703,-10407.57170673034,-9285.082261032147,-5439.076818644643,-12051.089370671843,0.0
1372.874997767073,-1819.7938561756805,-872.0205310198224,-6791.2421624260905,-10413.609541446102,-9289.714840330831,-5441.553879040853,-12040.919132314326,0.0
1375.7569622665103,-1819.8534008967436,-871.6037179723832,-6791.265980314515,-10413.609541446102,-9290.27456070882,-5445.912552622647,-12039.418605343542,0.0
1378.0553884995325,-1812.172131879648,-862.9578244740712,-6783.763345460608,-10408.536331211555,-9286.928147385093,-5443.054406011635,-12039.68060211622,0.0
1376.9359477435528,-1808.6470843927332,-858.7182403344032,-6776.939520426817,-10403.784662470747,-9285.915887127027,-5449.199421225311,-12051.208460113969,0.0
1376.1856842581622,-1811.9934977164598,-866.066058913547,-6783.501348687932,-10406.333176532233,-9287.571230372572,-5447.710803198743,-12059.544721062754,0.0
1379.5082796934637,-1817.3048868352575,-877.0937412543691,-6795.600836007883,-10412.311466526935,-9287.654592982059,-5440.291530954323,-12064.975199623677,0.0
1379.127193478662,-1822.8187280056686,-879.8208894790432,-6797.792081742993,-10415.27679363586,-9292.918346324006,-5450.985762857194,-12069.607778922358,0.0
1376.8168583014271,-1826.0103250546322,-880.7736050160473,-6796.232010051149,-10412.906913737563,-9288.392947523236,-5443.411674338011,-12066.213729821782,0.0
1376.4000452539879,-1824.4978891396381,-878.8800828862517,-6792.766507285297,-10411.739837204732,-9286.07070340179,-5438.671914541416,-12053.768883119666,0.0
1375.5545102148967,-1819.8772187851685,-873.914053149618,-6785.3115082082395,-10408.131427108328,-9285.737252963838,-5438.945820258305,-12045.646983166705,0.0
1377.2813071257167,-1820.9847505969358,-873.9616889264682,-6787.669479162325,-10409.6200451349,-9289.405207781303,-5444.7216582013925,-12034.547847160611,0.0
1378.1387511090204,-1821.5563799191382,-876.8079265932679,-6792.766507285297,-10410.965755830917,-9289.917292382443,-5449.759141603301,-12032.344692481289,0.0
1377.852936447919,-1824.1525297574742,-880.011432586444,-6794.993479853044,-10409.500955692774,-9284.462995933094,-5445.293287523595,-12036.17937251773,0.0
1376.4357720866255,-1829.2138310478083,-884.4772866661506,-6803.210651359704,-10417.51567514782,-9289.560024056067,-5439.922353683734,-12047.611958961777,0.0
1375.9117785412734,-1827.927665072853,-884.9179176020149,-6808.629220976414,-10423.44632936567,-9294.002060247349,-5438.3384641034645,-12065.737372053281,0.0
1375.6974175454475,-1823.604718323697,-879.6779821484926,-6802.555659428013,-10421.326537295836,-9289.178937841265,-5440.613072448062,-12074.919168041157,0.0
1375.6735996570224,-1822.1756450181908,-877.1056501985815,-6798.720979391572,-10418.87329478805,-9286.606605891353,-5441.506243264003,-12077.991675647996,0.0
1377.8648453921317,-1812.5413091502373,-869.0671128551097,-6790.432354219636,-10412.740188518586,-9286.320791230253,-5443.792760552813,-12075.21689164647,0.0
1380.6515383378685,-1813.2439368587777,-865.827880029296,-6784.334974782811,-10407.369254678726,-9282.509929082238,-5436.254398866269,-12062.688682334867,0.0
1379.2224650323624,-1822.2947344603162,-875.9147557773266,-6793.254773998011,-10413.704812999804,-9289.190846785477,-5440.922704997588,-12049.696024198975,0.0
1377.1503087393787,-1820.4131212747334,-878.2131820103489,-6796.6011873217385,-10415.586426185386,-9291.191549413186,-5440.529709838574,-12034.607391881673,0.0
1378.4126568259092,-1817.054799006794,-875.450306953037,-6794.08840009289,-10411.739837204732,-9286.72569533348,-5438.088376275002,-12037.501265325322,0.0
1377.852936447919,-1815.9234493066015,-876.7007460953549,-6794.540939972967,-10410.73948589088,-9286.713786389268,-5445.221833858319,-12046.028069381508,0.0
1378.0672974437452,-1818.7458690849762,-875.9743004983893,-6791.027801430264,-10410.346490731865,-9289.345663060241,-5444.554932982416,-12057.24629482973,0.0
1374.8757003947815,-1826.224686050458,-877.1056501985815,-6793.885948041276,-10410.989573719342,-9290.238833876183,-5441.67296848298,-12066.999720139811,0.0
1374.2683442399414,-1825.4267867882172,-876.1529346615775,-6796.065284832173,-10411.882744535284,-9290.524648537285,-5443.280675951673,-12076.84841700359,0.0
1374.5065231241924,-1821.5563799191382,-876.2839330479155,-6793.647769157025,-10408.262425494668,-9285.499074079587,-5443.899941050727,-12077.348592660517,0.0
1373.8396222482895,-1822.8187280056686,-879.7970715906181,-6793.290500830649,-10410.453671229776,-9287.46404987466,-5438.124103107639,-12076.550693398276,0.0
1367.3373387082368,-1830.1903644732377,-890.2650335534503,-6803.532192853442,-10418.575571182735,-9291.715542958538,-5444.316754098165,-12071.370302665817,0.0
1371.231563465741,-1824.1644387016868,-885.846815250594,-6795.839014892135,-10407.535979897702,-9285.4157114701,-5445.340923300445,-12052.256447204674,0.0
1370.350301594012,-1821.4253815328002,-878.8800828862517,-6794.612393638242,-10409.715316688598,-9286.963874217732,-5443.352129616948,-12037.001089668394,0.0
1371.255381354166,-1822.2113718508285,-870.1389178342394,-6794.362305809778,-10416.384325447629,-9290.631829035197,-5446.3055477816615,-12037.727535265361,0.0
1374.970971948482,-1819.7938561756805,-866.994956562126,-6787.431300278074,-10409.95349557285,-9284.963171590021,-5444.7931118666675,-12042.872199165182,0.0
1375.0781524463948,-1818.5315080891503,-881.0356017887234,-6790.07508589326,-10407.57170673034,-9286.046885513366,-5445.0193818067055,-12054.757325489309,0.0
1371.4221065731417,-1810.3857902477655,-873.0089733894641,-6787.69329705075,-10406.261722866959,-9288.03567919686,-5444.554932982416,-12065.916006216468,0.0
1376.0070500949737,-1813.2677547472028,-864.3749888353648,-6788.145836930827,-10408.726874318958,-9287.416414097808,-5439.600812189995,-12074.978712762218,0.0
1374.935245115844,-1822.7115475077555,-874.8191329097718,-6800.507321023454,-10414.824253755784,-9293.632882976759,-5445.50764851942,-12080.802186482159,0.0
1371.9222822300687,-1831.3574410060676,-887.4187958866506,-6807.509780220434,-10419.099564728089,-9298.432187494418,-5456.71396502343,-12080.81409542637,0.0
1373.0774498186863,-1829.4162830994217,-881.8811368278145,-6800.483503135029,-10413.264182063938,-9292.108538117553,-5450.271226204441,-12070.631948124637,0.0
1373.6728970293136,-1835.9066576952619,-881.4524148361627,-6798.780524112634,-10413.907265051417,-9296.074216540332,-5454.868078670485,-12055.65049630525,0.0
1374.6970662315932,-1831.643255667169,-875.9028468331139,-6794.529031028754,-10409.39377519486,-9286.320791230253,-5447.84180158508,-12040.14505094051,0.0
1374.7923377852935,-1824.057258203774,-869.4839259025491,-6789.896451730072,-10403.41548520016,-9276.63881958545,-5433.801156358483,-12039.049428072953,0.0
1373.4942628661256,-1828.9875611077698,-876.1052988847274,-6800.388231581329,-10418.206393912147,-9295.657403492893,-5450.140227818103,-12050.255744576963,0.0
1371.9580090627064,-1828.1062992360412,-877.6177347997213,-6802.103119547936,-10421.790986120124,-9300.432890122127,-5451.974205226836,-12062.04559934739,0.0
1373.2679929260871,-1826.1651413293955,-875.3788532877618,-6795.910468557409,-10416.122328674952,-9295.335861999154,-5450.318861981291,-12067.857164123114,0.0
1372.2676416122329,-1828.5826570045433,-876.7602908164176,-6795.326930290995,-10413.347544673426,-9292.084720229128,-5442.7566824063215,-12078.682394412323,0.0
1373.0536319302612,-1824.902793242865,-874.7238613560714,-6794.540939972967,-10412.966458458624,-9292.93025526822,-5448.484884572558,-12080.552098653694,0.0
1375.2925134422208,-1824.6884322470391,-877.6296437439338,-6796.863184094414,-10416.503414889754,-9296.205214926671,-5452.248110943725,-12078.06312931327,0.0
1377.245580293079,-1824.7360680238892,-877.2247396407071,-6795.291203458357,-10414.324078098856,-9292.572986941843,-5442.458958801008,-12072.037203541719,0.0
1379.0676487575995,-1825.4148778440049,-875.7956663352011,-6791.837609636717,-10409.369957306435,-9284.177181271993,-5435.182593887139,-12057.305839550794,0.0
1377.5552128426054,-1824.3430728648752,-876.3911135458286,-6791.813791748293,-10409.096051589546,-9286.380335951315,-5438.231283605553,-12042.169571456643,0.0
1378.3173852722086,-1822.9735442804317,-876.7841087048428,-6796.279645827999,-10413.192728398664,-9289.53620616764,-5437.94546894445,-12036.953453891545,0.0
1378.9604682596864,-1826.1413234409704,-877.0222875890938,-6797.232361365003,-10415.705515627513,-9293.406613036721,-5442.637592964195,-12042.098117791365,0.0
1377.5075770657552,-1827.8085756307273,-877.1771038638569,-6794.933935131981,-10410.417944397139,-9291.941812898578,-5438.362281991889,-12059.556630006966,0.0
1376.983583520403,-1823.6642630447598,-874.4261377507577,-6793.219047165374,-10410.763303779304,-9292.19190072704,-5440.08907890271,-12066.80917703241,0.0
1378.6389267659476,-1822.0565555760652,-873.1995164968649,-6791.027801430264,-10410.84666638879,-9285.594345633288,-5437.576291673861,-12070.48904079409,0.0
1379.2462829207877,-1821.0204774295732,-874.366593029695,-6792.051970632543,-10413.847720330354,-9282.974377906527,-5434.491875122811,-12071.346484777392,0.0
1375.10197033482,-1817.9956055995854,-871.0916333712435,-6789.32482240787,-10412.359102303784,-9283.87945766668,-5433.169982315218,-12072.954192246085,0.0
1375.4949654938341,-1819.04359269029,-876.010027331027,-6796.220101106936,-10413.538087780827,-9280.128140239727,-5433.705884804783,-12063.30794743392,0.0
1376.745404636152,-1821.3658368117374,-879.7018000369177,-6801.781578054197,-10418.575571182735,-9284.832173203684,-5432.193448889789,-12049.779386808463,0.0
1378.4722015469717,-1825.7840551145937,-880.011432586444,-6799.197337160074,-10415.872240846487,-9285.356166749036,-5434.789598728125,-12041.0858575333,0.0
1379.8060032987776,-1829.1661952709583,-885.0370070441405,-6801.948303273173,-10417.908670306835,-9291.5845445722,-5442.280324637819,-12036.893909170481,0.0
1373.1250855955366,-1829.654461983673,-886.4779892938592,-6802.0316658826605,-10417.003590546681,-9294.740414788528,-5445.710100571034,-12046.182885656272,0.0
1373.1489034839615,-1829.9283677005615,-884.3701061682376,-6799.1258834947985,-10414.71707325787,-9294.859504230653,-5451.39066696042,-12061.045248033535,0.0
1376.1142305928868,-1827.582305690689,-881.8454099951769,-6798.363711065195,-10413.121274733388,-9291.76317873539,-5453.129372815453,-12073.359096349313,0.0
1376.7692225245771,-1820.1153976694195,-869.0432949666847,-6785.442506594578,-10400.521611756509,-9282.212205476924,-5447.091538099689,-12079.170661125037,0.0
1372.8154530460101,-1818.805413806039,-865.7445174198082,-6785.323417152453,-10407.464526232427,-9291.191549413186,-5451.974205226836,-12083.076794826755,0.0
1367.0038882702854,-1820.1511245020572,-871.9848041871847,-6791.218344537665,-10413.64526827874,-9294.109240745262,-5451.307304350932,-12086.482752871543,0.0
1369.4452218338583,-1816.1497192466402,-874.9501312961099,-6795.112569295169,-10415.955603455976,-9289.607659832918,-5445.686282682609,-12076.967506445717,0.0
1375.0781524463948,-1817.9717877111605,-878.6538129462133,-6799.697512817001,-10424.625314842713,-9291.346365687948,-5446.329365670086,-12058.234737199373,0.0
1380.008455350391,-1826.1651413293955,-882.345585652104,-6798.280348455707,-10420.719181140996,-9286.106430234428,-5451.069125466682,-12042.705473946207,0.0
1376.5429525845384,-1826.9630405916362,-873.7592368748548,-6787.2764840033105,-10403.36784942331,-9283.0458315718,-5444.138119934977,-12042.57447555987,0.0
1372.9345424881358,-1831.643255667169,-878.8443560536141,-6793.290500830649,-10411.334933101505,-9290.036381824568,-5440.27962201011,-12051.744362603533,0.0
1373.4704449777005,-1830.9882637354785,-887.1210722813369,-6804.2229116177705,-10420.159460763007,-9293.489975646207,-5449.401873276925,-12063.296038489707,0.0
1374.7089751758056,-1824.3430728648752,-881.8215921067517,-6801.912576440535,-10415.526881464322,-9287.952316587372,-5447.222536486027,-12072.13247509542,0.0
1375.7212354338726,-1819.972490338869,-872.1634383503731,-6795.49365550997,-10413.538087780827,-9284.820264259472,-5440.529709838574,-12078.658576523898,0.0
1377.1860355720164,-1820.7465717126847,-872.6993408399378,-6793.2785918864365,-10412.823551128073,-9284.48681382152,-5442.411323024157,-12079.075389571337,0.0
1378.3173852722086,-1826.1651413293955,-880.8688765697477,-6798.0302606272435,-10413.859629274566,-9284.272452825695,-5438.719550318267,-12073.359096349313,0.0
1377.3527607909919,-1829.7616424815858,-884.6559208293388,-6803.5441017976555,-10421.850530841188,-9287.737955591547,-5439.183999142556,-12064.3321166362,0.0
1376.3524094771376,-1822.9497263920066,-878.0107299587355,-6795.946195390047,-10417.956306083683,-9284.260543881483,-5443.102041788485,-12055.114593815684,0.0
1376.4119541982006,-1823.9143508732234,-881.2261448961242,-6800.53113891188,-10421.898166618037,-9288.571581686425,-5440.148623623772,-12040.823860760624,0.0
1377.7933917268565,-1832.5721533157478,-884.5011045545757,-6799.899964868615,-10417.122679988806,-9285.6062545775,-5435.897130539892,-12036.798637616781,0.0
1376.7334956919394,-1824.87897535444,-871.7347163587212,-6787.967202767639,-10404.010932410787,-9278.627613268945,-5436.433033029457,-12042.66974711357,0.0
1376.638224138239,-1821.8183766918141,-870.4961861606159,-6791.920972246206,-10413.91917399563,-9288.488219076939,-5442.3398693588815,-12053.828427840728,0.0
1375.4830565496216,-1829.1304684383203,-882.214587265766,-6806.699972013981,-10427.37628095581,-9299.551628250398,-5452.164748334237,-12066.940175418747,0.0
1373.3156287029374,-1833.5486867411769,-888.6096903079057,-6808.653038864839,-10427.840729780102,-9300.420981177913,-5457.583317950947,-12077.765405707956,0.0
1374.4588873473422,-1831.1430800102416,-884.6201939967012,-6802.555659428013,-10420.623909587295,-9294.323601741087,-5450.68803925188,-12073.1566442977,0.0
1374.6851572873807,-1828.3921138971425,-879.7970715906181,-6799.113974550586,-10420.445275424108,-9293.085071542982,-5441.125157049201,-12068.53597394323,0.0
1376.2214110907998,-1830.7500848512275,-882.2622230426161,-6802.019756938449,-10423.20815048142,-9292.596804830268,-5439.231634919406,-12059.24699745744,0.0
1375.7212354338726,-1829.6068262068227,-881.2023270076991,-6800.983678791957,-10421.790986120124,-9290.92955264051,-5437.75492583705,-12045.908979939382,0.0
1375.6140549359598,-1829.332920489934,-882.4289482615918,-6799.661785984364,-10418.742296401711,-9289.25039150654,-5441.8516026461675,-12035.143294371237,0.0
1371.838919620581,-1830.440452301701,-885.4776379800048,-6802.043574826874,-10421.195538909498,-9294.228330187389,-5449.842504212788,-12036.393733513554,0.0
1374.5779767894678,-1827.4393983601385,-881.0236928445108,-6797.637265468229,-10416.896410048768,-9291.108186803698,-5448.7945171220845,-12042.276751954556,0.0
1377.6266665078806,-1827.0821300337618,-879.427894320029,-6796.351099493274,-10415.27679363586,-9289.440934613942,-5450.259317260228,-12049.362573761022,0.0
1375.7331443780852,-1824.2478013111747,-877.1771038638569,-6797.458631305041,-10415.693606683299,-9288.250040192686,-5442.363687247307,-12060.437891878695,0.0
1376.4834078634758,-1820.0439440041444,-870.7462739890796,-6793.778767543364,-10415.526881464322,-9288.595399574851,-5443.006770234785,-12070.012683025585,0.0
1373.0536319302612,-1821.98510191079,-873.5925116558791,-6791.575612864041,-10414.455076485194,-9289.953019215081,-5449.687687938026,-12071.560845773218,0.0
1371.0052935257024,-1825.879326668294,-880.6902424065594,-6793.266682942223,-10413.74053983244,-9291.346365687948,-5454.641808730446,-12072.061021430145,0.0
1369.9692153792105,-1833.572504629602,-890.3245782745131,-6801.2814023972705,-10418.920930564902,-9297.217475184738,-5459.584020578655,-12063.16504010337,0.0
1371.5054691826297,-1833.1676005263753,-886.0373583579948,-6800.650228354005,-10416.62250433188,-9288.512036965361,-5442.280324637819,-12049.803204696887,0.0
1374.9828808926943,-1829.463918876272,-879.8566163116809,-6802.329389487975,-10419.611649329228,-9289.309936227603,-5456.416241418116,-12036.048374131391,0.0
1375.8284159317855,-1821.4372904770125,-874.9144044634722,-6801.3885828951825,-10423.672599305708,-9293.31134148302,-5450.83094658243,-12039.228062236143,0.0
1374.2207084630911,-1828.0943902918286,-881.1427822866364,-6805.556713369576,-10425.113581555426,-9292.299081224954,-5439.219725975194,-12045.182534342417,0.0
1372.6844546596722,-1832.6555159252355,-881.6905937204137,-6802.948654587028,-10420.314277037769,-9290.441285927795,-5440.243895177473,-12049.600752645272,0.0
1372.1247342816823,-1829.4996457089096,-882.1431336004906,-6805.747256476977,-10425.304124662829,-9291.76317873539,-5445.41237696572,-12060.723706539797,0.0
1372.7201814923096,-1829.1542863267457,-883.989019953436,-6805.7353475327645,-10426.11393286928,-9289.89347449402,-5443.864214218088,-12070.882035953102,0.0
1368.6711404600424,-1826.6891348747477,-879.7970715906181,-6796.458279991188,-10413.907265051417,-9288.86930529174,-5441.363335933453,-12073.013736967148,0.0
1367.1944313776862,-1824.1644387016868,-874.1284141454439,-6788.919918304642,-10406.440357030147,-9288.952667901227,-5443.4712190590735,-12073.025645911363,0.0
1371.1124740236153,-1820.7822985453224,-874.3427751412698,-6794.005037483402,-10413.823902441929,-9292.32289911338,-5441.875420534592,-12061.819329407352,0.0
1375.10197033482,-1818.781595917614,-874.4856824718204,-6796.10101166481,-10414.871889532633,-9292.525351164992,-5447.472624314491,-12044.479906633878,0.0
1375.0305166695446,-1819.4604057377292,-879.0348991610149,-6797.911171185118,-10415.443518854836,-9293.966333414712,-5450.890491303493,-12034.809843933286,0.0
1372.6010920501842,-1816.8285290667557,-881.2737806729745,-6801.781578054197,-10417.384676761481,-9297.015023133124,-5459.405386415467,-12035.131385427025,0.0
1371.3744707962915,-1811.7672277764214,-871.1630870365187,-6793.254773998011,-10412.418647024848,-9291.4892730185,-5452.950738652265,-12040.835769704836,0.0
1369.26658767067,-1827.5108520254137,-883.3340280217457,-6807.307328168821,-10425.613757212353,-9294.061604968412,-5443.983303660214,-12052.554170809986,0.0
1367.8970590862266,-1834.5371291108186,-887.7403373803895,-6806.9024240655945,-10424.19659285106,-9294.073513912625,-5440.589254559637,-12062.617228669591,0.0
1370.0525779886984,-1832.0124329377577,-885.394275370517,-6800.06669008759,-10419.040020007027,-9290.774736365747,-5439.505540636295,-12071.930023043806,0.0
1373.005996153411,-1826.9273137589987,-880.356791968608,-6796.98227353654,-10418.051577637383,-9288.488219076939,-5442.351778303095,-12072.680286529197,0.0
1372.053280616407,-1821.9136482455147,-872.4968887883244,-6793.11186666746,-10412.371011247997,-9284.534449598372,-5443.006770234785,-12069.274328484407,0.0
1369.8620348812976,-1823.366539439446,-878.2489088429866,-6796.851275150202,-10414.836162699996,-9288.940758957015,-5446.7580876617385,-12060.795160205073,0.0
1372.4581847196337,-1821.6040156959884,-876.831744481693,-6796.041466943748,-10415.32442941271,-9290.92955264051,-5448.687336624171,-12047.873955734454,0.0
1374.4827052357673,-1820.1392155578446,-865.2086149302434,-6788.229199540315,-10407.2501652366,-9286.130248122852,-5441.422880654515,-12039.894963112045,0.0
1372.6130009943968,-1822.9735442804317,-869.1385665203851,-6792.587873122108,-10408.845963761083,-9284.558267486795,-5443.983303660214,-12038.4301629739,0.0
1373.029814041836,-1822.6162759540553,-872.0681667966727,-6792.885596727422,-10409.26277680852,-9287.118690492494,-5446.662816108038,-12040.180777773145,0.0
1373.8872580251398,-1823.5809004352718,-872.7946123936382,-6793.147593500098,-10410.668032225602,-9285.892069238602,-5442.589957187345,-12047.171328025914,0.0
1376.3047737002876,-1820.2106692231198,-872.4135261788366,-6793.242865053799,-10413.68099511138,-9281.831119262122,-5441.434789598728,-12057.544018435045,0.0
1374.994789836907,-1827.9514829612779,-883.2625743564704,-6801.18613084357,-10415.32442941271,-9283.92709344353,-5442.375596191519,-12068.071525118941,0.0
1380.1156358483038,-1824.640796470189,-877.6177347997213,-6795.076842462531,-10407.714614060891,-9278.032166058318,-5435.146867054501,-12068.607427608504,0.0
1383.4144133951804,-1819.996308227294,-872.6755229515127,-6797.792081742993,-10411.954198200558,-9278.889610041622,-5438.55282509929,-12066.487635538671,0.0
1382.1401563644374,-1821.3062920906748,-870.5557308816788,-6797.744445966143,-10417.884852418409,-9280.020959741814,-5439.148272309918,-12059.306542178503,0.0
1374.9233361716317,-1827.9157561286404,-878.2965446198367,-6800.852680405618,-10419.444924110254,-9280.74740533878,-5429.251939669288,-12048.64803710827,0.0
1371.624558624755,-1828.213479733954,-880.2972472475453,-6801.18613084357,-10417.753854032071,-9284.415360156247,-5434.777689783912,-12037.429811660048,0.0
1374.2564352957288,-1825.5935120071929,-877.0818323101565,-6796.839366205989,-10415.252975747435,-9285.308530972186,-5438.671914541416,-12033.65467634467,0.0
1376.4119541982006,-1830.392816524851,-880.5592440202214,-6800.054781143377,-10419.230563114426,-9287.60695720521,-5437.564382729649,-12041.0858575333,0.0
1377.0312192972533,-1828.6660196140313,-879.8447073674682,-6801.757760165772,-10421.266992574772,-9290.965279473148,-5439.993807349009,-12050.61301290334,0.0
1377.9005722247693,-1827.1178568663995,-878.0345478471606,-6801.805395942622,-10419.52828671974,-9292.215718615465,-5444.304845153953,-12062.236142454789,0.0
1377.4480323446926,-1825.271970513454,-875.2716727898487,-6797.506267081892,-10416.062783953888,-9292.251445448104,-5448.580156126259,-12075.455070530723,0.0
1376.1142305928868,-1822.413823902442,-876.72456398378,-6797.018000369177,-10415.32442941271,-9292.33480805759,-5448.032344692481,-12078.444215528072,0.0
1379.0676487575995,-1819.9486724504438,-877.7725510744846,-6792.6712357315955,-10413.800084553504,-9290.953370528936,-5446.960539713352,-12074.323720830529,0.0
1374.625612566318,-1816.7451664572677,-870.3770967184904,-6787.407482389649,-10410.763303779304,-9288.011861308434,-5443.411674338011,-12064.177300361436,0.0
1376.376227365563,-1824.2835281438124,-876.962742868031,-6793.183320332735,-10411.751746148944,-9288.369129634813,-5442.47086774522,-12048.004954120792,0.0
1375.2806044980082,-1827.7490309096647,-881.869227883602,-6795.612744952096,-10410.394126508714,-9287.344960432534,-5442.589957187345,-12036.620003453592,0.0
1369.8382169928725,-1819.9129456178061,-870.3056430532151,-6786.859670955871,-10403.856116136023,-9283.033922627588,-5443.292584895886,-12036.786728672569,0.0
1370.8742951393644,-1823.2117231646828,-874.7238613560714,-6794.8624814667055,-10410.144038680251,-9285.379984637462,-5440.9346139418,-12041.776576297629,0.0
1373.7443506945892,-1821.1514758159115,-875.3788532877618,-6794.874390410918,-10414.133534991455,-9286.02306762494,-5441.25615543554,-12048.933851769372,0.0
1372.5653652175465,-1821.6040156959884,-879.296895933691,-6797.58962969138,-10414.038263437755,-9282.914833185463,-5440.196259400623,-12060.318802436568,0.0
1370.3741194824374,-1822.1875539624034,-882.8695791974562,-6808.355315259525,-10426.578381693571,-9294.180694410537,-5447.293990151303,-12074.78816965482,0.0
1370.9100219720021,-1818.3647828701746,-875.1764012361483,-6804.246729506196,-10425.482758826016,-9299.277722533508,-5453.510459030254,-12072.680286529197,0.0
1373.8038954156518,-1822.7234564519683,-868.3883030349945,-6793.242865053799,-10415.8841497907,-9291.4892730185,-5441.899238423018,-12066.404272929183,0.0
1372.4820026080588,-1829.3686473225714,-876.3434777689783,-6797.387177639766,-10415.8841497907,-9285.296622027974,-5441.279973323965,-12060.390256101846,0.0
1373.4942628661256,-1827.236946308525,-874.9144044634722,-6794.433759475054,-10411.31111521308,-9288.047588141073,-5445.555284296271,-12047.373780077527,0.0
1374.7685198968686,-1824.6169785817638,-872.8422481704883,-6791.492250254554,-10407.90515716829,-9284.80835531526,-5444.554932982416,-12035.52438058604,0.0
1374.1373458536032,-1823.628536212122,-873.2471522737152,-6790.4442631638485,-10409.036506868482,-9284.951262645809,-5448.282432520945,-12030.11771991354,0.0
1372.7797262133727,-1827.0583121453367,-880.8926944581729,-6802.519932595376,-10421.981529227527,-9289.607659832918,-5442.316051470456,-12035.048022817537,0.0
1371.838919620581,-1826.069869775695,-880.7497871276222,-6806.997695619294,-10422.958062652955,-9291.965630787001,-5452.379109330062,-12041.204946975426,0.0
1372.4105489427834,-1825.2005168481787,-876.8198355374803,-6800.7097730750675,-10421.362264128473,-9293.620974032547,-5446.222185172173,-12058.59200552575,0.0
1372.4581847196337,-1825.271970513454,-877.1175591427942,-6797.006091424964,-10414.90761636527,-9286.797148998756,-5440.315348842749,-12071.108305893142,0.0
1371.3625618520791,-1823.604718323697,-872.9137018357637,-6789.729726511096,-10406.023543982708,-9282.974377906527,-5441.279973323965,-12069.738777308696,0.0
1370.3860284266498,-1821.5682888633507,-871.6989895260836,-6791.599430752466,-10407.976610833568,-9287.70222875891,-5443.304493840098,-12067.892890955753,0.0
1370.9457488046398,-1822.854454838306,-874.7238613560714,-6798.566163116809,-10415.943694511763,-9295.31204411073,-5452.402927218487,-12061.831238351562,0.0
1371.9341911742815,-1822.3423702371667,-874.4856824718204,-6798.054078515669,-10417.313223096206,-9292.477715388142,-5453.260371201791,-12050.172381967477,0.0
1374.8757003947815,-1816.2449908003405,-873.0089733894641,-6793.5763154917495,-10414.931434253696,-9290.477012760433,-5447.472624314491,-12035.905466800841,0.0
1376.507225751901,-1811.2670521194943,-872.5564335093871,-6792.814143062146,-10411.501658320482,-9286.82096688718,-5441.637241650341,-12033.202136464592,0.0
1374.8757003947815,-1815.149367932786,-875.4026711761868,-6796.422553158549,-10410.489398062415,-9282.081207090585,-5439.326906473106,-12037.096361222097,0.0
1371.0410203583401,-1828.5469301719056,-885.5848184779178,-6804.854085661035,-10419.647376161865,-9288.607308519064,-5443.352129616948,-12048.32649561453,0.0
1370.933839860427,-1835.2754836519969,-885.5967274221304,-6807.736050160473,-10422.064891837013,-9289.833929772956,-5445.2456517467435,-12057.79410626351,0.0
1372.577274161759,-1830.785811683865,-875.8671200004763,-6797.530084970317,-10408.441059657856,-9280.949857390393,-5442.649501908408,-12061.843147295775,0.0
1375.0543345579697,-1822.330461292954,-873.675874265367,-6794.8982082993425,-10408.36960599258,-9285.975431848088,-5440.220077289047,-12061.593059467312,0.0
1376.3285915887127,-1818.4005097028123,-873.9616889264682,-6792.837960950572,-10407.988519777778,-9288.488219076939,-5443.44740117065,-12062.962588051756,0.0
1372.8630888228604,-1815.756724087626,-869.4243811814864,-6787.050214063272,-10409.417593083284,-9284.963171590021,-5441.148974937627,-12058.568187637324,0.0
1373.1727213723866,-1819.2817715745412,-867.6142216611786,-6784.334974782811,-10409.965404517063,-9284.415360156247,-5442.077872586206,-12043.9320952001,0.0
1374.3159800167916,-1827.8681203517901,-874.0926873128063,-6799.780875426489,-10419.087655783876,-9290.477012760433,-5447.6988942545295,-12033.797583675218,0.0
1375.4592386611964,-1825.9984161104196,-874.6762255792212,-6802.091210603723,-10416.908318992979,-9289.119393120203,-5443.4354922264365,-12035.81019524714,0.0
1378.0911153321701,-1823.7595345984603,-874.3308661970573,-6797.434813416616,-10410.227401289738,-9281.021311055667,-5434.634782453361,-12037.977623093824,0.0
1374.1016190209657,-1826.808224316873,-884.1081093955615,-6810.129747947195,-10424.089412353147,-9289.047939454927,-5441.708695315617,-12053.244889574315,0.0
1372.6249099386093,-1823.2712678857456,-881.5238685014381,-6810.749013046248,-10428.62672009813,-9295.538314050767,-5451.521665346759,-12061.188155364087,0.0
1373.9229848577775,-1828.2730244550169,-883.4888442965089,-6808.438677869013,-10425.220762053339,-9294.252148075811,-5453.331824867067,-12068.547882887442,0.0
1373.98252957884,-1830.7143580185898,-882.5599466479299,-6807.462144443584,-10422.779428489766,-9291.405910409014,-5451.593119012034,-12073.359096349313,0.0
1377.2336713488664,-1828.3444781202923,-879.4993479853043,-6800.76931779613,-10416.25332706129,-9287.344960432534,-5443.816578441239,-12067.392715298825,0.0
1377.3408518467795,-1826.7010438189602,-877.8797315723974,-6797.946898017755,-10413.59763250189,-9285.117987864785,-5432.0148147266,-12056.67466550753,0.0
1377.3527607909919,-1824.2478013111747,-875.0215849613852,-6799.5784233748755,-10413.585723557679,-9285.725344019625,-5437.24284123591,-12045.968524660446,0.0
1379.3653723629131,-1819.734311454618,-870.5319129932536,-6792.992777225335,-10409.512864636985,-9282.438475416962,-5436.135309424142,-12033.356952739354,0.0
1379.758367521927,-1822.0803734644905,-877.3557380270452,-6798.6376167820845,-10417.741945087859,-9287.118690492494,-5436.49257775052,-12032.725778696089,0.0
1381.890068535974,-1824.7956127449522,-884.2510167261121,-6803.389285522891,-10419.611649329228,-9287.38068726517,-5439.576994301569,-12039.859236279408,0.0
1384.2837663226965,-1821.2229294811868,-879.7494358137678,-6795.684198617371,-10407.57170673034,-9282.116933923224,-5437.8501973907505,-12049.267302207323,0.0
1379.794094354565,-1817.030981118369,-874.7476792444966,-6790.73007782495,-10403.201124204334,-9285.308530972186,-5439.779446353184,-12059.890080444919,0.0
1375.8284159317855,-1820.0439440041444,-870.1508267784519,-6788.4435605361405,-10402.951036375869,-9284.844082147896,-5438.231283605553,-12068.285886114767,0.0
1376.9716745761903,-1821.9731929665775,-869.11474863196,-6790.587170494399,-10407.893248224078,-9284.07000077408,-5437.576291673861,-12072.442107644945,0.0
1377.3408518467795,-1820.9371148200855,-871.8895326334844,-6790.741986769162,-10405.297098385743,-9280.711678506143,-5437.719199004412,-12074.823896487458,0.0
1377.614757563668,-1817.030981118369,-868.5669371981827,-6788.681739420392,-10407.702705116679,-9286.225519676553,-5447.603622700829,-12065.951733049105,0.0
1379.448734972401,-1813.5416604640916,-863.9224489552878,-6791.682793361954,-10412.299557582723,-9290.13165337827,-5450.033047320189,-12051.54191055192,0.0
1380.5443578399556,-1814.8873711601098,-863.4222732983607,-6790.6824420481,-10411.061027384616,-9288.893123180163,-5449.604325328538,-12035.464835864976,0.0
1383.1524166225042,-1816.5903501825046,-864.1368099511137,-6789.622546013183,-10406.952441631287,-9283.986638164593,-5434.289423071197,-12031.296705390583,0.0
1377.1264908509536,-1817.1500705604942,-866.6376882357494,-6792.361603182069,-10409.58431830226,-9288.107132862136,-5438.469462489803,-12040.28795827106,0.0
1369.957306434998,-1825.3553331229418,-875.7361216141383,-6802.257935822699,-10421.350355184262,-9296.9912052447,-5453.034101261752,-12053.685520510178,0.0
1369.135589284332,-1830.357089692213,-882.8338523648185,-6808.438677869013,-10423.303422035118,-9296.276668591945,-5448.86597078736,-12070.477131849877,0.0
1370.9814756372773,-1825.962689277782,-879.165897547353,-6802.734293591201,-10417.730036143645,-9290.536557481497,-5448.5325203494085,-12078.57521391441,0.0
1371.303017131016,-1824.9980647965654,-878.6895397788509,-6800.2572331949905,-10417.325132040418,-9289.417116725515,-5444.626386647691,-12080.552098653694,0.0
1373.827713304077,-1819.9605813946564,-870.4604593279784,-6787.562298664411,-10404.892194282516,-9279.937597132326,-5434.170333629072,-12075.657522582334,0.0
1375.2925134422208,-1821.9970108550026,-872.1753472945855,-6791.658975473529,-10408.97696214742,-9283.057740516015,-5434.730054007062,-12067.809528346264,0.0
1377.3170339583544,-1820.687026991622,-880.0590683632942,-6801.531490225733,-10419.683102994504,-9292.060902340703,-5440.827433443888,-12057.00811594548,0.0
1376.0070500949737,-1811.7553188322088,-870.9606349849054,-6794.0288553718265,-10412.073287642683,-9286.225519676553,-5441.482425375579,-12041.681304743928,0.0
1375.3282402748584,-1815.0898232117231,-871.4131748649824,-6796.720276763864,-10411.942289256345,-9286.797148998756,-5439.314997528894,-12034.452575606909,0.0
1377.8886632805568,-1817.6978819942717,-869.9245568384135,-6796.958455648114,-10413.788175609292,-9287.213962046195,-5441.446698542941,-12036.953453891545,0.0
1376.6263151940263,-1825.8674177240816,-879.4398032642415,-6801.757760165772,-10416.241418117077,-9288.50012802115,-5450.533222977117,-12048.505129777719,0.0
1377.412305512055,-1824.4740712512132,-878.4394519503874,-6801.043223513019,-10412.57346329961,-9287.999952364222,-5439.743719520546,-12061.688331021014,0.0
1379.5201886376763,-1817.1977063373445,-868.1263062623184,-6790.206084279598,-10405.011283724642,-9282.867197408614,-5431.812362674987,-12069.488689480233,0.0
1381.0564424410954,-1813.16057424929,-862.8625529203708,-6784.299247950173,-10402.367498109455,-9281.616758266297,-5433.408161199469,-12067.916708844177,0.0
1375.9951411507614,-1815.6852704223506,-865.6492458661078,-6784.513608945998,-10400.021436099583,-9283.819912945617,-5447.639349533467,-12067.285534800913,0.0
1375.2925134422208,-1809.1115332170225,-859.5756843177068,-6774.664912082219,-10389.946469295764,-9276.436367533835,-5441.041794439713,-12057.222476941308,0.0
1375.7688712107229,-1797.0239548412835,-854.1213878683585,-6769.139161967596,-10385.028075335982,-9268.74318957253,-5432.788896100416,-12041.252582752275,0.0
1374.0778011325406,-1812.0292245490975,-866.3399646304357,-6791.265980314515,-10401.867322452526,-9276.722182194937,-5437.219023347485,-12030.046266248266,0.0
1371.303017131016,-1834.2274965612921,-888.3596024794422,-6814.012063760487,-10425.399396216528,-9296.181397038245,-5452.712559768013,-12032.046968875973,0.0
1373.113176651324,-1831.2502605081545,-885.7158168642559,-6809.284212908105,-10420.588182754658,-9291.786996623814,-5445.555284296271,-12041.300218529126,0.0
1375.256786609583,-1823.2355410531077,-877.7963689629096,-6800.936043015106,-10411.930380312133,-9281.009402111455,-5438.302737270827,-12054.29287666502,0.0
1376.1142305928868,-1820.0677618925693,-869.7459226752252,-6795.148296127806,-10407.964701889354,-9284.474904877308,-5436.683120857921,-12066.356637152332,0.0
1370.4932089245626,-1823.628536212122,-868.6622087518831,-6797.494358137679,-10414.097808158816,-9290.024472880357,-5445.090835471981,-12079.789926224092,0.0
1370.112122709761,-1829.4996457089096,-876.5697477090168,-6801.3171292299085,-10415.241066803223,-9284.462995933094,-5439.041091812005,-12080.718823872669,0.0
1372.6249099386093,-1828.7255643350938,-878.0821836240108,-6799.852329091765,-10415.776969292787,-9288.154768638986,-5439.874717906884,-12075.324072144384,0.0
1372.2200058353826,-1825.3672420671546,-876.4387493226787,-6799.5784233748755,-10418.58748012695,-9293.513793534634,-5447.972799971419,-12063.927212532972,0.0
1373.3037197587248,-1825.0933363502659,-873.6044206000917,-6795.457928677332,-10413.704812999804,-9289.333754116029,-5441.565787985066,-12052.470808200498,0.0
1374.4231605147045,-1822.1518271297657,-867.5904037727536,-6790.53953471755,-10409.786770353874,-9286.320791230253,-5441.410971710303,-12039.097063849804,0.0
1373.5895344198261,-1822.0446466318529,-871.5918090281706,-6794.576666805604,-10412.43055596906,-9286.618514835567,-5440.922704997588,-12036.13173674088,0.0
1374.7685198968686,-1825.2838794576667,-878.1774551777112,-6800.67404624243,-10416.384325447629,-9286.392244895529,-5443.745124775963,-12037.810897874848,0.0
1376.1737753139496,-1825.7126014493185,-880.118613084357,-6804.199093729345,-10418.801841122775,-9288.21431336005,-5446.007824176347,-12043.277103268409,0.0
1376.3285915887127,-1820.9847505969358,-874.4975914160331,-6799.304517657987,-10415.907967679124,-9286.523243281867,-5445.055108639343,-12051.482365830858,0.0
1372.6725457154596,-1826.0936876641201,-875.2002191245734,-6798.173167957794,-10415.074341584246,-9287.213962046195,-5442.506594577857,-12066.166094044931,0.0
1372.2438237238077,-1826.1055966083325,-874.8786776308347,-6797.934989073544,-10415.83651401385,-9288.011861308434,-5436.254398866269,-12072.465925533372,0.0
1373.5061718103382,-1820.3297586652454,-870.0912820573892,-6794.6719383593045,-10409.53668252541,-9279.854234522838,-5435.373136994539,-12068.273977170553,0.0
1375.4473297169839,-1817.4477941658083,-871.0797244270309,-6792.623599954746,-10406.773807468098,-9274.733388511442,-5432.645988769866,-12058.210919310948,0.0
1371.3744707962915,-1822.0089197992152,-878.9634454957395,-6799.233063992711,-10417.46803937097,-9288.726397961189,-5437.528655897012,-12052.030177264634,0.0
1369.5762202201963,-1829.6306440952476,-884.0842915071364,-6803.651282295568,-10420.219005484068,-9293.668609809398,-5438.0407404981515,-12041.443125859676,0.0
1374.4469784031296,-1830.5357238554016,-885.4538200915797,-6801.5076723373095,-10412.871186904924,-9284.867900036323,-5436.516395638944,-12034.821752877497,0.0
1379.6750049124396,-1830.5595417438267,-885.632454254768,-6799.649877040151,-10412.037560810048,-9286.963874217732,-5441.232337547114,-12037.251177496859,0.0
1375.5545102148967,-1828.2015707897417,-879.7494358137678,-6798.399437897832,-10413.31181784079,-9290.727100588896,-5448.484884572558,-12051.363276388733,0.0
1368.8021388463806,-1825.9745982219947,-875.6765768930755,-6801.18613084357,-10418.087304470022,-9291.644089293264,-5449.818686324364,-12064.701293906788,0.0
1370.3145747613744,-1825.9031445567193,-878.3560893408994,-6805.235171875837,-10423.291513090906,-9293.156525208258,-5449.818686324364,-12073.90690778309,0.0
1371.303017131016,-1826.3795023252212,-877.1532859754318,-6802.043574826874,-10419.814101380842,-9287.690319814697,-5446.091186785835,-12076.514966565639,0.0
1370.755205697239,-1818.4243275912372,-869.5791974562495,-6790.6824420481,-10412.502009634336,-9280.664042729291,-5441.565787985066,-12067.678529959927,0.0
1370.4455731477126,-1814.2561971168445,-864.2439904490267,-6783.036899863642,-10403.51075675386,-9273.00659160062,-5437.659654283349,-12053.852245729155,0.0
1372.6130009943968,-1805.9913898333343,-854.1690236452088,-6774.200463257929,-10390.25610184529,-9271.708516681452,-5427.727594810081,-12040.776224983774,0.0
1372.9226335439232,-1809.1948958265104,-858.241882565901,-6782.405725820377,-10396.889383771682,-9282.593291691725,-5432.002905782388,-12029.962903638778,0.0
1372.636818882822,-1808.968625886472,-853.89511792832,-6778.142323792284,-10392.709344353076,-9281.997844481099,-5441.029885495502,-12024.65151451998,0.0
1367.4921549829999,-1807.9801835168303,-853.9189358167451,-6783.12026247313,-10397.949279806598,-9280.949857390393,-5441.268064379752,-12034.071489392107,0.0
1366.32507845017,-1805.8484825027838,-857.5511638015731,-6785.228145598751,-10401.283784186113,-9281.009402111455,-5433.396252255256,-12044.182183028563,0.0
1368.5282331294918,-1802.287708183231,-856.7413555951197,-6783.02499091943,-10400.866971138674,-9279.38978569855,-5430.764375584283,-12055.733858914737,0.0
1369.8382169928725,-1796.6905044033322,-846.0828505248867,-6771.139864595304,-10394.745773813422,-9276.92463424655,-5433.003257096242,-12067.714256792564,0.0
1373.1489034839615,-1798.6912070310407,-845.7613090311478,-6766.697828404022,-10388.100582942818,-9274.995385284117,-5435.849494763042,-12071.525118940579,0.0
1374.3993426262793,-1809.897523535051,-860.5879445757736,-6778.571045783935,-10391.661357262372,-9277.865440839341,-5435.408863827178,-12071.215486391055,0.0
1377.5075770657552,-1818.6386885870634,-872.3539814577739,-6791.956699078843,-10402.117410280991,-9281.461941991533,-5437.933560000238,-12064.546477632024,0.0
1378.2221137185084,-1811.6957741111462,-866.8639581757878,-6789.9559964511345,-10404.070477131849,-9278.282253886782,-5439.553176413145,-12046.992693862725,0.0
1378.3173852722086,-1806.5749280997493,-861.3501170053769,-6783.16789824998,-10398.782905901478,-9271.720425625666,-5427.632323256382,-12035.512471641827,0.0
1378.2459316069333,-1806.15811505231,-858.5991508922776,-6779.66666865149,-10392.209168696148,-9268.767007460952,-5422.309025193371,-12031.14188911582,0.0
1372.1128253374695,-1809.5997999297372,-859.5280485408566,-6783.548984464782,-10398.485182296163,-9276.746000083363,-5437.481020120161,-12035.881648912415,0.0
1371.8746464532185,-1818.0789682090733,-869.007568134047,-6795.195931904657,-10410.810939556153,-9285.165623641637,-5434.372785680685,-12047.123692249064,0.0
1373.029814041836,-1821.1991115927617,-871.2464496460067,-6794.576666805604,-10411.45402254363,-9283.295919400265,-5429.978385266254,-12062.37904978534,0.0
1373.6728970293136,-1817.9241519343102,-869.1742933530228,-6790.765804657588,-10406.976259519712,-9277.972621337254,-5432.848440821479,-12070.060318802436,0.0
1366.801436218672,-1818.1504218743487,-871.6156269165956,-6791.5398860314035,-10409.679589855961,-9276.353004924349,-5431.955270005537,-12072.108657206994,0.0
1370.9695666930647,-1823.1283605551948,-880.6902424065594,-6791.563703919829,-10401.617234624064,-9272.86368427007,-5437.612018506499,-12067.964344621027,0.0
1371.8508285647936,-1826.5343185999843,-887.7165194919644,-6804.282456338833,-10412.28764863851,-9282.021662369521,-5437.254750180123,-12058.056103036184,0.0
1369.3618592243704,-1828.2372976223792,-884.0723825629238,-6810.963374042074,-10425.399396216528,-9293.68051875361,-5441.803966869316,-12048.898124936733,0.0
1365.3604539689534,-1826.7010438189602,-877.0341965333063,-6806.366521576029,-10426.89992318731,-9297.09838574261,-5449.235148057949,-12039.894963112045,0.0
1366.2655337291071,-1828.011027682341,-879.0587170494399,-6803.556010741867,-10422.612703270792,-9295.431133552855,-5443.9237589391505,-12035.703014749228,0.0
1367.3611565966619,-1827.8085756307273,-878.9039007746768,-6800.888407238256,-10417.456130426757,-9290.441285927795,-5449.223239113736,-12035.1075675386,0.0
1366.3369873943825,-1829.4401009878468,-881.0117839002983,-6803.687009128205,-10418.87329478805,-9295.907491321355,-5453.951089966119,-12049.338755872599,0.0
1368.1947826915405,-1827.475125192776,-875.8909378889015,-6797.982624850394,-10413.466634115552,-9291.203458357399,-5447.6988942545295,-12063.224584824433,0.0
1367.7184249230384,-1826.1175055525453,-874.1998678107192,-6797.3157239744905,-10412.394829136423,-9289.512388279218,-5446.996266545989,-12073.799727285177,0.0
1366.4203500038705,-1823.0330890014945,-876.9984697006687,-6799.45933393275,-10415.062432640034,-9292.93025526822,-5453.1770085923035,-12077.979766703784,0.0
1369.897761713935,-1817.507338886871,-872.4254351230492,-6793.326227663287,-10410.13212973604,-9289.822020828742,-5450.676130307667,-12076.634056007764,0.0
1367.6588802019758,-1821.6754693612636,-874.6166808581585,-6794.540939972967,-10410.084493959188,-9286.26124650919,-5444.7931118666675,-12066.511453427096,0.0
1365.3009092478906,-1827.0940389779744,-882.4289482615918,-6804.103822175645,-10414.49080331783,-9286.713786389268,-5443.614126389624,-12052.411263479435,0.0
1369.4690397222832,-1823.2117231646828,-877.89164051661,-6800.11432586444,-10411.954198200558,-9287.761773479971,-5443.530763780137,-12036.262735127217,0.0
1373.5538075871884,-1819.6985846219802,-872.3420725135612,-6797.672992300868,-10413.014094235476,-9287.261597823044,-5443.518854835925,-12029.27218487445,0.0
1375.6497817685972,-1822.652002786693,-871.1749959807313,-6793.945492762339,-10405.511459381569,-9276.484003310687,-5438.31464621504,-12031.999333099124,0.0
1370.2312121518867,-1827.6537593559642,-873.3662417158407,-6794.957753020405,-10406.249813922746,-9281.81921031791,-5443.197313342186,-12044.44417980124,0.0
1367.992330639927,-1824.9147021870776,-874.7238613560714,-6802.508023651163,-10416.479597001327,-9293.418521980933,-5446.829541327013,-12061.450152136762,0.0
1369.5166754991335,-1827.4513073043508,-879.904252088531,-6806.652336237131,-10416.979772658255,-9287.285415711469,-5441.363335933453,-12071.346484777392,0.0
1366.3012605617448,-1828.9280163867072,-883.4173906312336,-6808.105227431062,-10422.100618669652,-9292.692076383968,-5444.99556391828,-12075.788520968674,0.0
1367.039615102923,-1821.7588319707515,-878.0107299587355,-6802.055483771086,-10417.051226323529,-9288.154768638986,-5442.375596191519,-12070.155590356137,0.0
1368.2543274126033,-1823.8667150963731,-881.2856896171869,-6800.912225126682,-10413.50236094819,-9278.841974264771,-5436.004311037805,-12060.473618711332,0.0
1366.8371630513097,-1825.9865071662073,-884.7988281598895,-6800.11432586444,-10416.02705712125,-9281.438124103108,-5439.469813803657,-12046.766423922687,0.0
1366.7418914976092,-1820.2344871115451,-878.1655462334986,-6795.434110788908,-10410.406035452927,-9283.986638164593,-5444.030939437064,-12030.093902025117,0.0
1369.1236803401193,-1822.7115475077555,-876.5459298205918,-6799.614150207513,-10408.143336052543,-9287.213962046195,-5448.9850602294855,-12027.509661130993,0.0
1369.4333128896458,-1827.0821300337618,-877.3319201386201,-6799.292608713774,-10406.64280908176,-9289.679113498192,-5445.555284296271,-12034.547847160611,0.0
1372.422457886996,-1823.9858045384985,-871.1154512596685,-6792.159151130456,-10404.153839741339,-9286.249337564977,-5436.957026574809,-12044.837174960254,0.0
1372.4462757754209,-1823.6999898773972,-875.7242126699258,-6799.137792439012,-10411.144389994106,-9290.655646923622,-5447.8537105292935,-12053.78079206388,0.0
1369.7786722718097,-1824.7956127449522,-879.4159853758165,-6806.6761541255555,-10416.944045825618,-9291.286820966887,-5443.828487385451,-12065.892188328044,0.0
1368.421052631579,-1821.9136482455147,-873.8306905401301,-6800.495412079242,-10415.669788794874,-9290.262651764608,-5445.269469635169,-12073.192371130337,0.0
1367.4445192061496,-1821.5444709749258,-873.8187815959176,-6799.483151821175,-10414.740891146294,-9288.30958491375,-5442.804318183172,-12067.892890955753,0.0
1369.0879535074816,-1823.5928093794844,-876.5697477090168,-6799.45933393275,-10411.608838818394,-9288.440583300087,-5448.091889413544,-12053.69742945439,0.0
1369.504766554921,-1820.925205875873,-875.8671200004763,-6801.805395942622,-10415.37206518956,-9290.572284314134,-5445.8530079015845,-12038.537343471813,0.0
1369.9930332676356,-1817.3048868352575,-874.4856824718204,-6801.162312955144,-10412.454373857485,-9286.320791230253,-5446.6270892754,-12027.724022126818,0.0
1371.100565079403,-1815.5066362591624,-874.6762255792212,-6800.67404624243,-10414.943343197909,-9290.357923318308,-5447.2106275418155,-12021.531371136292,0.0
1371.9103732858562,-1808.9209901096217,-867.3760427769276,-6792.325876349432,-10410.239310233952,-9285.27280413955,-5441.6610595387665,-12024.246610416752,0.0
1372.6963636038847,-1810.3381544709152,-866.1256036346098,-6788.086292209764,-10402.236499723118,-9277.0675415771,-5441.565787985066,-12034.702663435372,0.0
1369.242769782245,-1818.9245032481645,-874.1998678107192,-6796.1843742742985,-10407.131075794476,-9285.6062545775,-5443.6855800549,-12049.314937984173,0.0
1372.2795505564454,-1823.3189036625956,-880.4401545780959,-6805.580531258001,-10414.383622819918,-9291.024824194212,-5440.446347229086,-12061.307244806212,0.0
1372.7797262133727,-1821.961284022365,-872.0205310198224,-6792.706962564234,-10405.60673093527,-9285.84443346175,-5438.898184481454,-12066.987811195599,0.0
1369.4214039454332,-1819.5914041240674,-868.7455713613709,-6790.182266391173,-10404.022841355,-9282.021662369521,-5436.647394025282,-12066.66626970186,0.0
1376.6263151940263,-1812.3269481544112,-867.709493214879,-6791.33743397979,-10404.177657629762,-9276.769817971788,-5427.787139531144,-12050.017565692713,0.0
1382.366426304476,-1807.2656468640773,-862.0884715465551,-6789.789271232158,-10403.486938865435,-9274.626208013528,-5420.737044557314,-12033.106864910891,0.0
1379.5678244145263,-1817.2691600026199,-865.6611548103202,-6790.849167267076,-10403.594119363348,-9275.638468271594,-5423.178378120888,-12021.721914243692,0.0
1373.4109002566377,-1821.532562030713,-871.5679911397455,-6798.0302606272435,-10413.871538218778,-9286.11833917864,-5435.349319106114,-12025.294597507458,0.0
1366.8371630513097,-1825.1886079039662,-878.8800828862517,-6804.425363669384,-10418.801841122775,-9293.132707319832,-5441.803966869316,-12031.320523279008,0.0
1365.4199986900162,-1830.5357238554016,-884.8821907693773,-6809.903478007157,-10423.053334206656,-9299.182450979808,-5451.15248807617,-12045.027718067653,0.0
1362.0378585336516,-1832.1077044914584,-888.6930529173936,-6810.308382110384,-10422.13634550229,-9302.957586295186,-5458.512215599526,-12062.057508291602,0.0
1364.0385611613601,-1834.1917697286547,-890.8962075967155,-6810.332199998809,-10420.802543750484,-9300.242347014724,-5456.773509744494,-12068.416884501105,0.0
1370.9219309162145,-1832.0005239935454,-882.8933970858814,-6804.377727892534,-10418.909021620688,-9298.979998928195,-5458.619396097439,-12064.403570301474,0.0
1373.375173424,-1832.3697012641344,-880.2138846380574,-6805.020810880011,-10422.36261544233,-9304.23184332593,-5462.3468956359675,-12066.39236398497,0.0
1369.8024901602348,-1829.6782798720978,-882.4051303731668,-6804.877903549461,-10420.754907973633,-9299.313449366147,-5456.904508130831,-12060.687979707158,0.0
1362.5261252463663,-1828.0943902918286,-878.475178783025,-6800.912225126682,-10418.349301242697,-9293.132707319832,-5450.473678256054,-12048.671854996695,0.0
1367.0277061587105,-1827.8919382402153,-878.3322714524743,-6800.7097730750675,-10418.087304470022,-9296.979296300486,-5456.332878808628,-12034.952751263836,0.0
1368.5282331294918,-1828.0348455707658,-884.0009288976486,-6808.605403087989,-10421.112176300008,-9296.050398651907,-5458.071584663661,-12027.724022126818,0.0
1366.9919793260729,-1830.071275031112,-882.0835888794278,-6804.020459566157,-10415.217248914798,-9292.00135761964,-5454.975259168398,-12029.117368599686,0.0
1367.1348866566234,-1832.6555159252355,-882.6671271458429,-6801.900667496323,-10412.930731625987,-9295.085774170691,-5456.66632924658,-12039.942598888894,0.0
1367.599335480913,-1830.4999970227639,-888.9550496900697,-6813.368980773009,-10422.434069107603,-9296.872115802573,-5450.140227818103,-12053.55452212384,0.0
1366.27744267332,-1828.0467545149784,-884.8940997135899,-6808.391042092164,-10415.848422958063,-9295.169136780178,-5445.495739575208,-12062.712500223293,0.0
1364.5625547067123,-1823.10454266677,-875.0811296824479,-6799.9595095896775,-10413.907265051417,-9292.227627559678,-5442.447049856794,-12063.069768549669,0.0
1364.5149189298622,-1820.1987602789075,-874.0688694243811,-6799.852329091765,-10415.241066803223,-9289.964928159294,-5447.103447043902,-12064.344025580413,0.0
1365.5867239089919,-1824.0691671479865,-885.2275501515413,-6807.354963945671,-10420.635818531508,-9295.18104572439,-5450.140227818103,-12054.519146605058,0.0
1367.682698090401,-1825.1766989597538,-885.5371827010676,-6811.630274917978,-10425.494667770228,-9296.919751579422,-5449.52096271905,-12042.931743886245,0.0
1368.2900542452408,-1831.1788068428793,-882.3932214289541,-6804.925539326311,-10417.920579251046,-9290.572284314134,-5443.4712190590735,-12031.915970489636,0.0
1368.8021388463806,-1831.4169857271304,-879.0348991610149,-6796.577369433313,-10408.810236928444,-9292.465806443928,-5445.1741980814695,-12025.997225215999,0.0
1367.432610261937,-1823.4499020489338,-874.259412531782,-6789.56300129212,-10402.784311156895,-9288.285767025323,-5440.482074061723,-12026.699852924537,0.0
1367.7779696441012,-1822.5924580656301,-874.7000434676463,-6796.315372660637,-10408.167153940967,-9285.927796071239,-5444.304845153953,-12037.370266938984,0.0
1366.2655337291071,-1824.295437088025,-873.914053149618,-6798.542345228383,-10414.788526923145,-9284.939353701597,-5446.5675445543375,-12051.30373166767,0.0
1364.1814684919107,-1829.0232879404075,-886.9662560065736,-6814.369332086864,-10423.648781417283,-9291.072459971061,-5450.676130307667,-12066.34472820812,0.0
1363.8599269981719,-1827.4393983601385,-884.3462882798125,-6818.096831625392,-10427.447734621088,-9303.457761952113,-5455.4397079926875,-12069.881684639247,0.0
1363.4431139507328,-1828.189661845529,-883.2030296354077,-6814.690873580603,-10423.791688747833,-9299.28963147772,-5454.272631459858,-12065.058562233164,0.0
1367.2539760987488,-1831.5360751692558,-883.2268475238328,-6810.71328621361,-10423.017607374017,-9300.373345401063,-5455.0586217778855,-12051.375185332945,0.0
1371.2077455773158,-1823.950077705861,-873.9021442054054,-6801.650579667859,-10415.348247301135,-9294.549871681125,-5445.912552622647,-12036.17937251773,0.0
1371.4101976289294,-1822.354279181379,-874.3070483086323,-6799.221155048499,-10411.751746148944,-9294.442691183212,-5453.236553313366,-12026.42594720765,0.0
1372.053280616407,-1825.1409721271161,-878.5109056156626,-6803.675100183993,-10415.848422958063,-9297.860558172215,-5452.87928498699,-12023.067624939711,0.0
1371.969918006919,-1821.3658368117374,-873.4257864369034,-6798.971067220035,-10411.02530055198,-9290.084017601419,-5442.173144139906,-12029.212640153386,0.0
1371.4101976289294,-1823.604718323697,-873.9259620938305,-6800.721682019281,-10413.145092621813,-9292.51344222078,-5441.565787985066,-12039.525785841457,0.0
1370.8147504183016,-1825.879326668294,-875.926664721539,-6800.7097730750675,-10411.847017702645,-9292.51344222078,-5448.068071525118,-12050.708284457041,0.0
1367.5397907598501,-1829.118559494108,-880.7378781834096,-6804.949357214737,-10414.812344811571,-9291.167731524762,-5456.213789366503,-12066.66626970186,0.0
1366.646619943909,-1827.9872097939156,-882.2026783215533,-6809.724843843969,-10420.850179527335,-9292.299081224954,-5451.99802311526,-12067.761892569413,0.0
1369.5643112759838,-1823.5809004352718,-878.0583657355858,-6804.794540939973,-10414.871889532633,-9288.226222304262,-5443.066314955848,-12064.01057514246,0.0
1369.3618592243704,-1819.7938561756805,-873.9855068148933,-6801.638670723646,-10415.00288791897,-9287.047236827219,-5442.47086774522,-12052.315991925736,0.0
1368.9807730095688,-1823.7833524868852,-876.3077509363407,-6803.627464407143,-10416.944045825618,-9289.321845171817,-5445.686282682609,-12038.156257257013,0.0
1368.5639599621295,-1825.6292388398306,-880.1900667496323,-6803.305922913403,-10416.015148177037,-9288.96457684544,-5438.100285219214,-12027.783566847882,0.0
1368.8021388463806,-1824.6884322470391,-882.3574945963165,-6805.127991377924,-10416.062783953888,-9290.40555909516,-5438.5647340435025,-12026.14013254655,0.0
1368.945046176931,-1820.1511245020572,-877.9035494608225,-6803.698918072418,-10415.75315140436,-9294.573689569552,-5443.4712190590735,-12032.86868602664,0.0
1369.6953096623217,-1815.4828183707373,-873.2233343852901,-6799.899964868615,-10414.324078098856,-9295.78840187923,-5450.676130307667,-12041.4669437481,0.0
1367.9327859188643,-1816.1973550234902,-873.8306905401301,-6802.293662655337,-10414.609892759956,-9295.061956282265,-5450.271226204441,-12047.981136232367,0.0
1362.9905740706556,-1818.7339601407637,-871.3536301439195,-6801.805395942622,-10416.086601842313,-9294.919048951715,-5447.293990151303,-12061.509696857825,0.0
1363.300206620182,-1822.1280092413406,-875.8552110562638,-6802.96056353124,-10415.455427799048,-9291.310638855311,-5445.352832244657,-12059.759082058581,0.0
1365.9916280122186,-1826.6176812094723,-886.6328055686223,-6808.3314973711,-10417.051226323529,-9288.96457684544,-5443.745124775963,-12056.019673575838,0.0
1366.0511727332814,-1826.677225930535,-884.4772866661506,-6805.651984923277,-10412.43055596906,-9287.535503539933,-5443.221131230611,-12050.910736508655,0.0
1367.6588802019758,-1827.0344942569116,-882.1074067678529,-6803.746553849268,-10413.31181784079,-9288.666853240125,-5442.1135994188435,-12038.489707694964,0.0
1367.4921549829999,-1832.9294216421242,-883.989019953436,-6805.568622313789,-10418.039668693173,-9296.264759647735,-5448.9850602294855,-12025.675683722258,0.0
1370.0168511560607,-1831.3098052292175,-874.842950798197,-6801.043223513019,-10417.479948315182,-9297.277019905801,-5457.166504903507,-12023.198623326049,0.0
1368.4329615757913,-1831.107353177604,-875.3788532877618,-6802.281753711124,-10420.993086857883,-9299.65880874831,-5451.8551157847105,-12028.24801567217,0.0
1362.5261252463663,-1830.178455529025,-880.3925188012457,-6807.06914928457,-10421.06454052316,-9292.596804830268,-5445.864916845797,-12038.56116136024,0.0
1362.3117642505404,-1824.295437088025,-876.6292924300795,-6800.090507976015,-10411.882744535284,-9289.345663060241,-5450.199772539166,-12048.779035494608,0.0
1365.0984571962772,-1823.6761719889723,-879.6660732042801,-6799.816602259127,-10412.251921805871,-9294.013969191561,-5454.677535563084,-12059.306542178503,0.0
1364.4553742087994,-1823.2950857741707,-880.2734293591202,-6798.065987459882,-10408.75069220738,-9295.55022299498,-5453.212735424941,-12067.03544697245,0.0
1360.275334790194,-1834.2632233939298,-897.6009431883816,-6818.073013736967,-10424.780131117475,-9302.683680578297,-5457.237958568783,-12072.120566151209,0.0
1364.336284766674,-1835.513662536248,-894.5879803026062,-6813.869156429937,-10423.434420421458,-9299.265813589296,-5457.154595959296,-12060.83088703771,0.0
1369.7905812160222,-1823.5332646584218,-870.9010902638427,-6796.922728815477,-10415.848422958063,-9293.847243972587,-5460.905913386249,-12040.28795827106,0.0
1370.8147504183016,-1830.7739027396526,-879.1182617705027,-6809.308030796529,-10426.685562191484,-9299.28963147772,-5467.384379037876,-12030.415443518854,0.0
1371.731739122668,-1836.359197575339,-889.3242269606587,-6820.573892021603,-10432.187494417683,-9301.885781316056,-5458.250218826849,-12032.4518729792,0.0
1359.1558940342145,-1836.061473970025,-888.8359602479443,-6823.039043473601,-10434.688372702318,-9303.541124561601,-5452.474380883763,-12041.097766477513,0.0
1360.251516901769,-1827.8800292960027,-882.1193157120655,-6813.714340155173,-10426.38783858617,-9299.670717692523,-5455.904156816977,-12044.956264402379,0.0
1363.2049350664818,-1827.4393983601385,-880.5116082433711,-6808.248134761613,-10421.505171459023,-9297.396109347927,-5441.577696929278,-12056.627029730678,0.0
1365.8368117374553,-1825.962689277782,-875.450306953037,-6803.186833471278,-10416.408143336052,-9291.85845028909,-5438.945820258305,-12066.892539641898,0.0
1363.9075627750221,-1832.2625207662215,-880.4044277454582,-6810.10593005877,-10422.56506749394,-9295.64549454868,-5447.615531645041,-12071.799024657468,0.0
1361.04941616401,-1832.5840622599603,-882.6433092574177,-6811.5826391411265,-10423.327239923545,-9296.800662137297,-5447.305899095515,-12070.143681411924,0.0
1359.9537932964554,-1828.6660196140313,-881.8811368278145,-6810.439380496721,-10422.160163390714,-9297.693832953239,-5443.0186791789965,-12059.10409012689,0.0
1362.1807658642024,-1830.1189108079623,-886.2636282980333,-6814.381241031077,-10420.290459149344,-9298.575094824968,-5452.486289827975,-12048.767126550396,0.0
1365.3009092478906,-1829.7378245931607,-885.6443631989805,-6813.738158043599,-10422.00534711595,-9303.767394501641,-5461.358453266326,-12035.643470028164,0.0
1366.432258948083,-1825.0576095176282,-880.7616960718346,-6808.152863207912,-10420.350003870406,-9302.12396020031,-5459.97701573767,-12029.36745642815,0.0
1365.610541797417,-1829.03519688462,-884.5606492756384,-6811.761273304315,-10423.20815048142,-9301.921508148695,-5453.8915452450565,-12031.915970489636,0.0
1366.88479882816,-1828.9161074424946,-885.1441875420534,-6812.797351450807,-10424.00604974366,-9303.30294567735,-5457.035506517169,-12040.466592434248,0.0
1365.6224507416296,-1825.9984161104196,-881.5953221667133,-6812.142359519117,-10422.017256060162,-9299.146724147171,-5454.951441279973,-12048.517038721931,0.0
1362.3713089716032,-1826.4866828231343,-878.129819400861,-6808.819764083815,-10421.052631578947,-9298.503641159692,-5448.520611405195,-12056.76993706123,0.0
1363.883744886597,-1828.9399253309196,-882.8219434206061,-6808.271952650037,-10420.361912814618,-9297.253202017375,-5452.176657278449,-12057.734561542447,0.0
1366.563257334421,-1824.212074478537,-878.2727267314116,-6800.936043015106,-10411.668383539458,-9288.976485789652,-5447.4011706492165,-12059.211270624803,0.0
1363.4192960623075,-1824.378799697513,-878.8086292209763,-6802.793838312264,-10413.764357720866,-9287.440231986233,-5445.352832244657,-12056.591302898041,0.0
